#Absolutdruck 1 vs Winkelposition, Messreihe #1
#Winkelposition ( rad )	Absolutdruck 1 ( kPa )
1,183	188,87
1,202	191,77
1,221	195,35
1,236	198,99
1,249	201,58
1,260	204,65
1,269	206,68
1,274	209,18
1,277	210,91
1,279	212,03
1,275	212,88
1,269	213,54
1,261	213,60
1,252	213,44
1,238	212,53
1,221	211,56
1,200	209,98
1,178	208,14
1,153	206,50
1,126	204,19
1,095	201,74
1,063	199,71
1,029	197,03
0,991	194,96
0,952	191,94
0,911	189,14
0,869	186,87
0,825	183,68
0,779	180,73
0,732	178,09
0,683	174,82
0,633	171,52
0,581	168,74
0,528	165,39
0,476	162,37
0,424	160,00
0,369	155,91
0,314	152,52
0,258	149,20
0,201	145,57
0,148	142,42
0,093	139,62
0,041	136,60
-0,011	132,97
-0,063	130,72
-0,113	127,70
-0,162	125,53
-0,210	122,99
-0,258	120,44
-0,303	118,54
-0,346	116,19
-0,388	114,22
-0,429	112,51
-0,467	110,65
-0,503	108,80
-0,537	107,28
-0,570	105,70
-0,598	104,48
-0,625	103,00
-0,650	101,85
-0,672	100,81
-0,693	99,80
-0,710	98,58
-0,726	97,96
-0,738	97,01
-0,746	96,28
-0,752	95,83
-0,757	95,28
-0,759	94,89
-0,759	94,50
-0,756	94,19
-0,749	94,05
-0,740	93,93
-0,729	93,89
-0,715	93,91
-0,697	94,05
-0,679	94,26
-0,657	94,49
-0,633	94,89
-0,605	95,35
-0,576	95,76
-0,545	96,35
-0,511	96,92
-0,476	97,67
-0,440	98,50
-0,401	99,27
-0,360	100,22
-0,316	101,27
-0,270	102,14
-0,223	103,33
-0,176	104,65
-0,127	105,78
-0,079	107,28
-0,027	108,55
0,025	110,28
0,077	112,06
0,129	113,56
0,182	115,60
0,234	117,60
0,289	119,26
0,342	121,20
0,397	122,83
0,451	126,52
0,503	129,39
0,554	131,76
0,606	134,75
0,657	137,93
0,705	140,72
0,752	144,47
0,800	148,27
0,845	150,78
0,888	154,60
0,930	158,93
0,969	162,27
1,007	166,64
1,041	170,80
1,074	173,99
1,106	178,20
1,136	182,46
1,162	185,65
1,188	189,60
1,208	192,65
1,227	196,21
1,241	199,42
1,252	202,05
1,261	204,89
1,269	207,19
1,275	209,03
1,279	210,81
1,279	212,10
1,275	212,77
1,269	213,39
1,260	213,42
1,247	213,14
1,232	212,27
1,214	211,00
1,194	209,67
1,172	207,76
1,145	205,57
1,117	203,62
1,087	201,16
1,054	199,10
1,019	196,46
0,982	193,77
0,941	191,33
0,900	188,65
0,856	185,65
0,812	182,98
0,767	179,91
0,718	176,68
0,669	174,01
0,619	170,51
0,567	167,08
0,515	164,26
0,460	160,76
0,407	157,37
0,352	154,48
0,298	150,91
0,245	147,36
0,192	144,81
0,137	141,62
0,082	138,44
0,028	135,89
-0,025	132,85
-0,077	130,61
-0,127	127,55
-0,174	124,99
-0,221	123,10
-0,267	120,76
-0,313	117,76
-0,357	115,74
-0,399	113,49
-0,438	111,35
-0,476	109,87
-0,511	108,16
-0,545	106,52
-0,576	104,90
-0,605	103,49
-0,631	102,44
-0,655	101,25
-0,677	100,13
-0,697	99,27
-0,713	98,37
-0,727	97,59
-0,738	97,01
-0,748	96,31
-0,752	95,68
-0,757	95,10
-0,757	94,73
-0,756	94,46
-0,752	94,17
-0,748	94,00
-0,738	93,87
-0,726	93,88
-0,710	94,00
-0,693	94,15
-0,672	94,40
-0,649	94,65
-0,624	94,96
-0,597	95,36
-0,569	95,81
-0,537	96,42
-0,504	97,01
-0,467	97,60
-0,429	98,39
-0,386	99,30
-0,346	100,06
-0,303	101,17
-0,258	102,29
-0,212	103,24
-0,163	104,60
-0,115	105,72
-0,066	107,28
-0,016	108,88
0,036	110,28
0,088	112,16
0,143	114,18
0,198	115,87
0,253	118,04
0,305	120,37
0,357	122,34
0,408	124,86
0,462	126,93
0,514	129,65
0,565	132,58
0,619	135,01
0,669	138,10
0,718	140,34
0,767	144,23
0,812	148,05
0,856	152,10
0,898	155,41
0,939	159,64
0,979	163,69
1,016	167,27
1,051	171,50
1,084	175,44
1,115	178,84
1,144	182,71
1,169	186,90
1,191	189,75
1,211	193,62
1,230	196,51
1,244	199,83
1,257	203,05
1,266	205,11
1,272	207,68
1,275	209,73
1,277	211,29
1,277	212,55
1,274	213,35
1,268	213,73
1,257	213,39
1,244	213,09
1,228	212,06
1,210	210,60
1,188	208,83
1,166	207,23
1,139	205,02
1,111	202,68
1,079	200,61
1,045	198,05
1,008	195,31
0,971	193,01
0,930	190,25
0,889	188,00
0,845	186,00
0,801	182,03
0,756	179,26
0,707	176,18
0,657	172,83
0,605	169,94
0,551	166,64
0,500	162,91
0,448	159,97
0,394	156,48
0,341	152,89
0,284	150,24
0,229	146,85
0,173	143,54
0,118	140,90
0,066	137,68
0,013	134,71
-0,041	132,32
-0,091	129,48
-0,140	127,08
-0,188	124,19
-0,236	121,54
-0,281	119,51
-0,325	117,29
-0,369	115,10
-0,412	113,33
-0,449	111,24
-0,487	109,27
-0,522	107,90
-0,554	106,27
-0,586	105,04
-0,613	103,63
-0,639	102,34
-0,663	101,36
-0,685	100,23
-0,702	99,25
-0,718	98,40
-0,732	97,55
-0,743	96,82
-0,751	96,26
-0,756	95,50
-0,757	95,03
-0,757	94,60
-0,756	94,19
-0,751	94,00
-0,745	93,75
-0,737	93,64
-0,724	93,57
-0,707	93,65
-0,688	93,84
-0,666	94,00
-0,642	94,37
-0,617	94,62
-0,591	95,15
-0,561	95,68
-0,529	96,26
-0,495	96,98
-0,459	97,82
-0,419	98,48
-0,377	99,43
-0,335	100,45
-0,291	101,32
-0,245	102,46
-0,199	103,43
-0,152	104,77
-0,102	106,22
-0,050	107,44
0,002	109,12
0,053	110,93
0,105	112,46
0,157	114,38
0,210	116,50
0,264	118,29
0,317	120,55
0,371	122,41
0,424	125,00
0,476	127,59
0,529	129,82
0,581	132,68
0,633	135,93
0,683	138,57
0,732	141,87
0,779	145,28
0,823	148,74
0,867	152,36
0,909	156,88
0,950	160,19
0,990	164,46
1,027	168,43
1,062	172,21
1,093	176,25
1,123	180,37
1,150	183,88
1,175	187,74
1,199	190,87
1,219	194,48
1,235	198,22
1,249	200,42
1,260	203,65
1,268	206,33
1,274	208,24
1,277	210,21
1,277	211,68
1,275	212,53
1,272	213,42
1,264	213,71
1,253	213,50
1,241	212,72
1,224	211,57
1,205	210,32
1,183	208,58
1,158	206,54
1,131	204,68
1,101	202,18
1,070	199,69
1,035	197,59
0,999	195,01
0,960	192,55
0,919	189,81
0,877	186,90
0,833	184,37
0,789	181,54
0,741	178,11
0,693	175,86
0,644	172,39
0,592	168,63
0,539	165,78
0,485	162,39
0,430	159,41
0,375	156,57
0,322	154,19
0,269	149,41
0,215	146,46
0,160	143,14
0,105	139,66
0,052	137,26
-0,002	134,11
-0,053	131,62
-0,104	128,45
-0,154	125,72
-0,201	123,53
-0,248	120,66
-0,292	118,38
-0,336	116,40
-0,379	114,31
-0,421	112,33
-0,459	110,74
-0,496	108,94
-0,531	107,64
-0,562	106,18
-0,592	104,39
-0,619	103,43
-0,644	102,18
-0,668	100,88
-0,690	99,98
-0,707	98,86
-0,723	97,86
-0,734	97,17
-0,743	96,49
-0,751	95,96
-0,756	95,41
-0,757	94,99
-0,757	94,61
-0,756	94,14
-0,749	93,87
-0,741	93,70
-0,732	93,67
-0,718	93,65
-0,702	93,65
-0,682	93,83
-0,660	94,02
-0,635	94,37
-0,609	94,88
-0,581	95,34
-0,551	96,00
-0,520	96,70
-0,484	97,35
-0,446	98,23
-0,407	99,20
-0,366	99,96
-0,322	101,02
-0,278	102,06
-0,231	103,04
-0,184	104,27
-0,137	105,31
-0,088	106,77
-0,038	108,31
0,014	109,68
0,066	111,47
0,119	113,41
0,174	115,08
0,228	117,22
0,281	119,47
0,333	121,36
0,386	123,82
0,438	125,88
0,493	128,79
0,545	131,58
0,597	133,61
0,647	135,93
0,696	140,61
0,745	143,32
0,792	147,01
0,837	150,78
0,881	153,85
0,922	157,58
0,961	162,09
1,001	165,53
1,037	169,44
1,070	173,70
1,103	176,99
1,131	181,12
1,158	184,62
1,183	188,30
1,205	192,18
1,224	195,24
1,239	198,53
1,252	201,84
1,261	204,13
1,271	206,81
1,275	209,21
1,279	210,58
1,279	212,02
1,275	212,84
1,271	213,44
1,261	213,61
1,250	213,25
1,236	212,65
1,219	211,25
1,199	209,62
1,177	208,10
1,151	206,03
1,123	204,19
1,093	201,78
1,060	199,14
1,026	197,04
0,988	194,36
0,949	191,38
0,908	189,12
0,866	186,15
0,822	183,08
0,776	180,80
0,727	177,37
0,679	174,12
0,627	171,34
0,575	167,96
0,523	164,42
0,471	161,52
0,419	158,15
0,364	154,53
0,308	151,93
0,251	148,47
0,196	145,00
0,141	142,25
0,088	138,94
0,036	136,61
-0,014	133,61
-0,066	130,82
-0,118	128,50
-0,168	125,67
-0,217	122,93
-0,262	120,89
-0,308	118,45
-0,350	115,94
-0,393	114,19
-0,432	111,95
-0,470	110,07
-0,506	108,61
-0,540	106,77
-0,573	105,47
-0,602	103,90
-0,628	102,58
-0,653	101,65
-0,675	100,52
-0,694	99,60
-0,713	98,58
-0,727	97,61
-0,738	96,91
-0,748	96,36
-0,752	95,79
-0,757	95,29
-0,759	94,80
-0,757	94,40
-0,754	94,17
-0,748	93,99
-0,740	93,82
-0,727	93,76
-0,713	93,77
-0,696	93,95
-0,675	94,20
-0,653	94,52
-0,630	94,82
-0,603	95,23
-0,573	95,89
-0,542	96,45
-0,509	97,10
-0,473	97,88
-0,435	98,57
-0,396	99,42
-0,355	100,41
-0,311	101,26
-0,265	102,38
-0,220	103,29
-0,171	104,53
-0,123	105,88
-0,074	107,10
-0,022	108,74
0,030	110,51
0,082	111,95
0,134	113,87
0,185	115,97
0,239	117,63
0,294	119,84
0,347	122,26
0,402	124,36
0,456	127,03
0,507	129,22
0,559	132,11
0,609	135,21
0,660	137,65
0,710	141,05
0,759	144,67
0,804	147,41
0,848	150,18
0,892	155,49
0,933	158,85
0,972	162,96
1,010	167,05
1,045	170,24
1,078	174,13
1,109	178,79
1,139	182,19
1,166	185,62
1,189	188,80
1,210	192,74
1,227	196,33
1,241	199,32
1,253	202,26
1,263	204,89
1,271	207,20
1,277	209,58
1,279	211,14
1,279	212,13
1,274	213,07
1,268	213,46
1,258	213,56
1,246	213,22
1,232	212,10
1,213	210,99
1,192	209,34
1,170	207,30
1,144	205,55
1,115	203,22
1,084	201,19
1,051	198,64
1,015	196,10
0,977	193,77
0,938	191,00
0,895	188,15
0,853	186,02
0,809	182,77
0,763	180,37
0,715	177,02
0,664	173,91
0,614	171,17
0,562	167,55
0,509	163,92
0,454	160,48
0,401	157,79
0,347	153,66
0,294	150,26
0,240	147,76
0,185	143,85
0,130	140,47
0,075	138,05
0,022	135,16
-0,031	132,77
-0,083	129,96
-0,132	126,99
-0,179	124,98
-0,226	122,21
-0,273	119,78
-0,317	118,05
-0,361	115,70
-0,404	113,57
-0,443	111,84
-0,481	109,82
-0,515	108,44
-0,548	106,73
-0,580	105,07
-0,608	103,82
-0,635	102,39
-0,658	101,47
-0,682	100,53
-0,701	99,40
-0,716	98,48
-0,729	97,80
-0,740	96,97
-0,749	96,27
-0,754	95,86
-0,757	95,22
-0,759	94,79
-0,757	94,42
-0,752	94,07
-0,746	93,91
-0,737	93,75
-0,724	93,71
-0,708	93,66
-0,691	93,78
-0,671	94,04
-0,647	94,25
-0,622	94,63
-0,595	94,97
-0,565	95,55
-0,534	96,24
-0,500	96,87
-0,463	97,68
-0,426	98,56
-0,385	99,32
-0,342	100,30
-0,298	101,38
-0,254	102,30
-0,207	103,52
-0,160	104,55
-0,112	105,87
-0,061	107,33
-0,009	108,51
0,042	109,09
0,094	111,31
0,149	113,72
0,203	115,77
0,256	118,04
0,309	120,01
0,361	122,27
0,415	124,48
0,468	127,71
0,522	130,43
0,572	132,82
0,624	135,95
0,674	139,33
0,723	141,95
0,770	145,46
0,817	149,02
0,861	152,17
0,903	156,35
0,942	160,20
0,982	163,40
1,019	167,46
1,056	171,74
1,089	175,36
1,118	179,61
1,147	183,78
1,172	186,79
1,194	190,66
1,214	194,49
1,232	197,29
1,246	200,33
1,258	203,37
1,266	205,40
1,272	207,87
1,277	209,51
1,277	211,37
1,277	212,47
1,272	213,11
1,266	213,63
1,257	213,52
1,244	213,15
1,227	212,18
1,208	210,78
1,186	209,25
1,162	207,32
1,136	205,01
1,107	202,99
1,076	200,42
1,041	197,72
1,005	195,59
0,968	192,65
0,927	190,03
0,884	187,58
0,840	184,55
0,796	181,47
0,749	178,91
0,701	175,94
0,650	173,19
0,600	169,63
0,548	166,33
0,495	163,71
0,443	160,29
0,390	156,87
0,333	153,64
0,278	150,17
0,221	146,80
0,167	144,16
0,113	140,90
0,060	137,74
0,008	134,87
-0,046	131,48
-0,096	128,65
-0,145	126,58
-0,193	123,84
-0,240	121,98
-0,287	119,26
-0,331	116,94
-0,374	115,35
-0,415	113,14
-0,454	111,31
-0,490	109,76
-0,525	107,77
-0,558	106,23
-0,589	104,98
-0,617	103,63
-0,642	102,54
-0,666	101,39
-0,686	100,22
-0,704	99,43
-0,719	98,43
-0,734	97,53
-0,743	96,89
-0,751	96,17
-0,756	95,55
-0,757	95,20
-0,757	94,73
-0,756	94,40
-0,751	94,22
-0,745	94,07
-0,734	94,07
-0,721	94,03
-0,704	94,07
-0,685	94,16
-0,663	94,47
-0,641	94,78
-0,616	95,10
-0,587	95,55
-0,558	96,14
-0,525	96,71
-0,490	97,35
-0,452	98,16
-0,413	98,89
-0,372	99,82
-0,330	100,64
-0,287	101,74
-0,242	102,98
-0,195	103,92
-0,146	105,27
-0,096	106,68
-0,046	107,92
0,008	109,56
0,060	111,30
0,112	112,80
0,163	114,86
0,215	116,48
0,269	118,62
0,324	120,89
0,377	122,54
0,430	125,86
0,484	128,39
0,536	130,56
0,587	133,73
0,639	136,90
0,688	139,44
0,737	143,30
0,782	147,08
0,828	150,14
0,872	153,75
0,916	157,64
0,957	160,84
0,994	165,25
1,030	168,57
1,065	172,47
1,096	176,82
1,125	180,33
1,153	184,20
1,178	188,09
1,200	191,26
1,219	194,80
1,236	198,30
1,250	201,08
1,261	204,07
1,269	206,69
1,274	208,57
1,277	210,58
1,277	212,04
1,275	212,96
1,271	213,49
1,263	213,74
1,252	213,54
1,239	212,62
1,222	211,75
1,203	210,20
1,180	208,27
1,155	206,63
1,128	204,37
1,098	201,99
1,067	199,98
1,030	197,41
0,994	194,75
0,955	192,34
0,914	189,83
0,872	186,83
0,828	184,19
0,782	181,14
0,735	177,91
0,686	175,54
0,636	172,07
0,584	168,78
0,533	165,96
0,479	162,23
0,424	159,62
0,371	156,36
0,316	152,23
0,262	149,37
0,207	146,09
0,154	142,55
0,099	140,26
0,044	137,16
-0,008	133,70
-0,061	131,33
-0,110	128,35
-0,160	125,49
-0,206	123,42
-0,253	120,89
-0,297	118,40
-0,342	116,45
-0,385	114,26
-0,426	112,70
-0,463	110,71
-0,501	108,79
-0,534	107,39
-0,567	105,91
-0,595	104,46
-0,622	103,41
-0,647	101,99
-0,671	100,81
-0,691	99,91
-0,708	98,93
-0,724	97,94
-0,735	97,27
-0,745	96,51
-0,751	96,03
-0,756	95,39
-0,757	94,92
-0,757	94,53
-0,754	94,30
-0,749	93,99
-0,743	93,91
-0,732	93,79
-0,718	93,88
-0,699	93,90
-0,679	94,09
-0,657	94,35
-0,631	94,66
-0,606	95,11
-0,578	95,47
-0,548	96,09
-0,515	96,76
-0,481	97,34
-0,441	98,16
-0,402	99,05
-0,361	99,82
-0,317	100,86
-0,273	101,78
-0,226	102,95
-0,179	104,24
-0,130	105,33
-0,082	106,82
-0,033	108,40
0,019	109,79
0,072	111,62
0,126	113,54
0,181	115,17
0,234	117,30
0,287	119,52
0,339	121,23
0,393	123,37
0,445	126,06
0,498	128,81
0,550	131,44
0,602	133,08
0,652	137,34
0,702	140,52
0,751	143,85
0,798	147,68
0,842	151,18
0,884	154,52
0,927	158,64
0,966	163,01
1,004	165,98
1,040	170,24
1,073	174,43
1,106	177,70
1,134	182,00
1,161	185,19
1,186	189,02
1,206	192,85
1,225	195,69
1,239	199,17
1,252	202,32
1,263	204,57
1,271	207,20
1,275	209,41
1,279	210,75
1,279	212,29
1,275	213,13
1,269	213,61
1,261	213,64
1,249	213,14
1,235	212,44
1,217	211,03
1,195	209,54
1,173	207,87
1,148	205,65
1,120	203,84
1,090	201,36
1,056	198,82
1,021	196,67
0,983	193,95
0,942	191,00
0,902	188,77
0,859	187,94
0,815	182,83
0,768	180,42
0,721	177,23
0,672	174,24
0,620	171,96
0,570	167,80
0,517	164,04
0,465	160,98
0,410	157,64
0,355	154,67
0,300	151,64
0,243	147,90
0,188	144,24
0,135	141,49
0,082	138,23
0,028	135,35
-0,024	132,98
-0,075	129,71
-0,126	127,45
-0,174	124,89
-0,221	122,31
-0,269	120,22
-0,313	117,88
-0,357	115,67
-0,397	113,74
-0,437	111,79
-0,474	109,97
-0,511	108,54
-0,545	106,70
-0,576	105,36
-0,605	104,12
-0,631	102,75
-0,655	101,75
-0,677	100,63
-0,696	99,37
-0,713	98,59
-0,727	97,63
-0,738	96,88
-0,748	96,33
-0,754	95,63
-0,757	95,18
-0,757	94,70
-0,756	94,33
-0,754	94,16
-0,748	93,96
-0,738	93,69
-0,726	93,67
-0,710	93,64
-0,693	93,74
-0,672	93,94
-0,650	94,22
-0,625	94,49
-0,598	94,93
-0,570	95,51
-0,537	96,00
-0,504	96,76
-0,467	97,57
-0,430	98,29
-0,390	99,23
-0,349	100,27
-0,305	101,09
-0,259	102,27
-0,212	103,48
-0,163	104,51
-0,115	105,88
-0,064	107,10
-0,014	108,67
0,039	110,41
0,091	111,92
0,143	113,84
0,195	115,96
0,247	117,69
0,300	120,04
0,355	122,50
0,410	124,55
0,463	127,27
0,515	129,48
0,567	132,35
0,619	135,46
0,668	138,06
0,716	141,51
0,765	145,20
0,811	148,16
0,855	151,77
0,898	155,82
0,939	158,84
0,980	162,24
1,016	167,08
1,052	170,39
1,084	174,77
1,114	178,85
1,142	182,49
1,169	186,04
1,192	188,99
1,213	193,57
1,230	196,91
1,244	199,83
1,257	202,76
1,266	205,61
1,272	207,72
1,277	209,88
1,279	211,45
1,277	212,27
1,272	213,20
1,266	213,59
1,257	213,57
1,244	212,90
1,230	211,82
1,211	210,69
1,189	209,04
1,166	207,05
1,139	205,15
1,111	202,88
1,079	200,22
1,045	198,16
1,008	195,46
0,971	193,29
0,930	190,25
0,889	187,21
0,845	185,03
0,801	181,85
0,754	178,62
0,705	176,11
0,657	172,75
0,605	171,91
0,553	167,29
0,500	164,96
0,445	159,63
0,390	156,64
0,336	153,03
0,281	149,83
0,228	146,91
0,173	143,45
0,118	140,66
0,064	137,42
0,013	134,56
-0,041	131,83
-0,091	129,07
-0,141	126,24
-0,190	123,97
-0,237	121,40
-0,283	118,97
-0,327	117,05
-0,369	114,75
-0,410	112,75
-0,449	111,32
-0,487	109,50
-0,522	108,12
-0,554	106,48
-0,586	104,91
-0,614	103,81
-0,639	102,54
-0,663	101,35
-0,685	100,36
-0,702	99,25
-0,718	98,33
-0,732	97,60
-0,741	96,97
-0,749	96,47
-0,754	95,81
-0,757	95,20
-0,757	94,91
-0,756	94,59
-0,751	94,32
-0,745	94,20
-0,735	94,12
-0,723	94,13
-0,705	94,17
-0,686	94,40
-0,664	94,60
-0,641	94,84
-0,616	95,27
-0,589	95,63
-0,559	96,18
-0,526	96,85
-0,492	97,39
-0,454	98,18
-0,416	98,96
-0,375	99,73
-0,333	100,76
-0,289	101,65
-0,243	102,83
-0,196	104,02
-0,148	105,10
-0,097	106,56
-0,049	108,09
0,002	109,45
0,052	111,18
0,105	113,08
0,160	114,74
0,214	116,86
0,267	118,64
0,320	120,97
0,374	123,39
0,427	125,35
0,479	127,99
0,533	130,78
0,583	133,18
0,635	135,83
0,685	139,84
0,734	142,46
0,781	146,14
0,826	149,75
0,870	152,87
0,913	157,04
0,953	160,94
0,991	164,69
1,027	168,91
1,062	172,00
1,095	176,27
1,123	180,61
1,151	183,98
1,177	187,84
1,199	191,59
1,219	194,47
1,235	198,13
1,249	201,25
1,260	203,78
1,268	206,28
1,274	208,52
1,277	210,17
1,279	211,66
1,277	212,87
1,271	213,31
1,264	213,44
1,253	213,28
1,239	212,84
1,224	211,65
1,203	210,43
1,181	208,57
1,158	206,38
1,129	204,64
1,100	202,24
1,068	199,64
1,034	197,50
0,996	194,84
0,958	192,01
0,917	189,93
0,875	186,85
0,831	183,60
0,785	181,26
0,738	177,90
0,690	174,88
0,639	172,06
0,587	168,63
0,534	165,34
0,482	162,41
0,430	158,93
0,375	155,23
0,319	152,62
0,262	149,38
0,207	147,45
0,154	143,45
0,101	139,81
0,047	137,26
-0,005	134,05
-0,057	131,15
-0,107	128,85
-0,157	126,37
-0,206	123,16
-0,253	120,99
-0,297	118,56
-0,341	116,30
-0,383	114,57
-0,423	112,46
-0,462	110,85
-0,498	109,06
-0,534	107,20
-0,565	105,86
-0,595	104,42
-0,622	103,04
-0,647	101,98
-0,669	100,74
-0,690	99,88
-0,708	99,06
-0,724	98,16
-0,735	97,36
-0,745	96,85
-0,751	96,16
-0,756	95,70
-0,757	95,25
-0,757	94,76
-0,756	94,43
-0,749	94,15
-0,741	93,93
-0,730	93,83
-0,716	93,81
-0,699	93,86
-0,680	93,95
-0,660	94,29
-0,635	94,51
-0,608	94,92
-0,580	95,44
-0,548	95,93
-0,515	96,61
-0,479	97,37
-0,443	98,04
-0,404	98,96
-0,363	99,93
-0,319	100,76
-0,275	101,91
-0,228	102,84
-0,181	104,15
-0,132	105,47
-0,083	106,65
-0,031	108,24
0,020	109,95
0,072	111,33
0,124	113,22
0,176	115,16
0,229	116,59
0,283	118,43
0,338	120,91
0,391	123,59
0,445	126,14
0,498	128,11
0,550	129,91
0,602	134,01
0,652	137,38
0,701	140,98
0,749	144,37
0,795	147,11
0,840	150,91
0,884	155,22
0,927	158,76
0,966	162,68
1,004	166,50
1,040	169,85
1,073	174,05
1,104	177,39
1,133	181,66
1,159	185,42
1,184	188,40
1,206	192,43
1,225	195,94
1,239	198,87
1,252	201,93
1,263	204,65
1,271	206,58
1,275	209,16
1,279	210,98
1,279	212,21
1,275	213,13
1,269	213,55
1,261	213,64
1,249	213,27
1,235	212,47
1,217	211,33
1,197	209,61
1,173	208,03
1,147	205,93
1,118	203,73
1,089	201,74
1,056	199,24
1,021	196,57
0,983	194,34
0,944	191,47
0,903	188,64
0,861	186,31
0,815	183,12
0,770	179,99
0,721	177,45
0,672	175,16
0,622	170,73
0,570	167,84
0,517	164,42
0,463	160,74
0,408	157,85
0,355	154,89
0,302	153,57
0,247	148,07
0,192	144,70
0,137	142,14
0,082	139,08
0,030	135,65
-0,024	133,29
-0,074	130,32
-0,124	127,22
-0,173	125,14
-0,220	122,66
-0,267	120,13
-0,311	118,21
-0,355	115,89
-0,397	113,76
-0,437	111,95
-0,474	110,12
-0,511	108,55
-0,543	106,84
-0,575	105,19
-0,603	104,05
-0,630	102,62
-0,655	101,40
-0,679	100,48
-0,697	99,47
-0,713	98,50
-0,726	97,84
-0,738	96,98
-0,746	96,47
-0,752	95,93
-0,757	95,27
-0,757	94,82
-0,757	94,42
-0,752	94,09
-0,748	93,90
-0,738	93,88
-0,726	93,79
-0,712	93,73
-0,693	93,85
-0,672	94,05
-0,649	94,43
-0,624	94,79
-0,598	95,16
-0,569	95,70
-0,537	96,32
-0,503	96,91
-0,467	97,73
-0,427	98,62
-0,388	99,34
-0,346	100,30
-0,303	101,15
-0,258	102,32
-0,212	103,54
-0,163	104,55
-0,115	105,94
-0,066	107,46
-0,016	108,77
0,036	110,51
0,090	112,40
0,145	113,98
0,198	116,10
0,251	117,90
0,305	120,25
0,357	122,61
0,410	124,65
0,463	127,28
0,517	130,09
0,569	132,32
0,620	135,50
0,669	138,79
0,719	141,55
0,767	145,18
0,814	148,61
0,858	151,66
0,900	155,87
0,941	159,89
0,980	163,10
1,016	167,34
1,052	170,67
1,085	174,75
1,115	178,91
1,144	182,35
1,170	186,31
1,194	189,99
1,214	193,38
1,232	196,90
1,246	200,21
1,257	202,51
1,266	205,51
1,274	208,02
1,277	209,70
1,279	211,41
1,279	212,49
1,274	213,19
1,266	213,76
1,257	213,64
1,244	213,14
1,228	212,06
1,210	210,49
1,188	209,14
1,164	207,11
1,139	205,29
1,109	202,94
1,078	200,32
1,045	198,40
1,008	195,69
0,971	192,78
0,930	190,59
0,888	187,53
0,845	184,74
0,800	182,25
0,752	178,95
0,704	175,92
0,653	173,25
0,602	169,81
0,551	166,13
0,500	163,49
0,448	159,99
0,393	156,75
0,336	155,59
0,280	150,07
0,223	146,81
0,168	144,24
0,115	141,14
0,063	138,11
0,011	135,18
-0,041	131,95
-0,091	129,51
-0,141	126,82
-0,192	124,01
-0,239	121,96
-0,284	119,19
-0,328	116,91
-0,371	114,90
-0,412	112,84
-0,451	110,87
-0,487	109,38
-0,523	107,62
-0,556	106,41
-0,587	104,87
-0,616	103,59
-0,641	102,57
-0,663	101,29
-0,685	100,29
-0,704	99,37
-0,719	98,48
-0,734	97,57
-0,743	96,95
-0,749	96,23
-0,754	95,69
-0,757	95,19
-0,757	94,75
-0,756	94,49
-0,752	94,19
-0,745	93,95
-0,735	93,89
-0,721	93,83
-0,704	93,93
-0,685	93,98
-0,664	94,19
-0,642	94,44
-0,616	94,83
-0,587	95,31
-0,558	95,80
-0,523	96,47
-0,489	97,23
-0,452	97,87
-0,415	98,80
-0,374	99,76
-0,333	100,59
-0,287	101,71
-0,242	102,63
-0,195	103,83
-0,146	105,18
-0,096	106,36
-0,046	107,90
0,006	109,55
0,058	111,03
0,110	112,92
0,162	115,00
0,214	116,72
0,269	118,93
0,322	120,90
0,377	123,33
0,430	125,99
0,484	128,10
0,536	130,91
0,587	133,84
0,639	136,36
0,688	139,66
0,737	143,09
0,784	145,97
0,828	149,70
0,873	153,61
0,916	156,89
0,957	160,76
0,996	165,06
1,032	168,48
1,065	172,51
1,096	175,88
1,126	180,05
1,153	184,41
1,180	187,47
1,202	191,39
1,222	195,07
1,238	197,82
1,250	201,29
1,261	204,03
1,269	206,29
1,275	208,62
1,279	210,49
1,279	211,81
1,277	212,88
1,271	213,50
1,263	213,66
1,252	213,51
1,238	212,72
1,221	211,70
1,202	210,12
1,180	208,21
1,155	206,44
1,128	204,31
1,098	202,37
1,065	199,77
1,030	197,07
0,993	194,94
0,953	191,91
0,913	189,15
0,870	186,77
0,825	183,67
0,779	180,75
0,732	178,11
0,683	174,82
0,633	171,30
0,583	168,70
0,529	165,47
0,476	161,86
0,421	159,03
0,366	155,54
0,313	153,68
0,259	149,03
0,206	145,78
0,151	142,62
0,096	139,66
0,042	137,76
-0,011	133,47
-0,064	130,78
-0,115	127,78
-0,163	125,81
-0,210	123,06
-0,256	120,52
-0,302	118,93
-0,346	116,06
-0,388	114,21
-0,429	112,24
-0,467	110,46
-0,504	108,40
-0,537	107,19
-0,569	105,38
-0,598	104,27
-0,625	102,89
-0,650	101,68
-0,674	100,73
-0,694	99,70
-0,712	98,78
-0,726	98,05
-0,737	97,16
-0,746	96,45
-0,752	95,89
-0,757	95,29
-0,759	94,87
-0,757	94,56
-0,754	94,28
-0,749	94,08
-0,741	93,98
-0,729	93,93
-0,715	93,98
-0,697	94,07
-0,679	94,33
-0,655	94,47
-0,630	94,88
-0,603	95,24
-0,575	95,67
-0,545	96,31
-0,512	96,88
-0,476	97,58
-0,438	98,47
-0,397	99,18
-0,357	100,14
-0,313	101,20
-0,269	102,07
-0,223	103,21
-0,174	104,53
-0,127	105,60
-0,077	107,05
-0,027	108,32
0,025	110,02
0,077	111,88
0,130	113,38
0,185	115,46
0,239	117,69
0,292	119,48
0,344	121,94
0,397	124,42
0,451	126,54
0,504	129,36
0,556	131,71
0,608	134,59
0,658	137,89
0,707	140,70
0,756	144,27
0,801	147,76
0,847	150,82
0,889	154,70
0,931	157,70
0,971	161,97
1,008	166,37
1,043	170,60
1,076	173,77
1,107	178,10
1,137	181,79
1,164	185,71
1,188	189,76
1,210	193,16
1,227	196,24
1,241	199,63
1,253	202,21
1,264	205,01
1,271	207,62
1,275	209,15
1,279	210,86
1,277	212,25
1,274	212,90
1,268	213,44
1,260	213,52
1,247	213,33
1,233	212,26
1,214	211,05
1,194	209,71
1,170	207,72
1,144	205,58
1,115	203,64
1,085	201,15
1,051	198,47
1,016	196,47
0,979	193,44
0,938	190,67
0,895	188,43
0,853	185,57
0,807	182,83
0,762	179,84
0,713	176,69
0,664	173,99
0,613	170,79
0,561	168,59
0,509	164,82
0,457	161,06
0,404	157,38
0,349	154,67
0,292	151,25
0,236	148,11
0,181	145,05
0,126	141,36
0,072	137,98
0,020	135,54
-0,031	132,73
-0,082	130,05
-0,132	127,19
-0,181	124,43
-0,229	122,10
-0,275	119,69
-0,320	117,39
-0,363	115,56
-0,404	113,41
-0,443	111,32
-0,481	109,76
-0,517	107,95
-0,551	106,63
-0,583	105,14
-0,609	103,73
-0,636	102,67
-0,660	101,36
-0,682	100,26
-0,701	99,48
-0,716	98,57
-0,730	97,70
-0,741	97,05
-0,749	96,27
-0,754	95,70
-0,757	95,22
-0,757	94,79
-0,757	94,52
-0,752	94,16
-0,746	93,99
-0,737	93,87
-0,724	93,91
-0,707	93,97
-0,690	94,12
-0,668	94,40
-0,646	94,76
-0,620	95,08
-0,594	95,56
-0,564	96,04
-0,531	96,69
-0,496	97,42
-0,460	98,06
-0,423	98,93
-0,383	99,83
-0,341	100,64
-0,297	101,68
-0,251	102,85
-0,204	103,77
-0,156	105,06
-0,107	106,19
-0,057	107,74
-0,003	109,37
0,049	110,77
0,101	112,67
0,152	114,70
0,204	116,43
0,258	118,66
0,313	120,95
0,366	122,85
0,421	125,47
0,474	127,60
0,526	130,29
0,578	133,14
0,628	135,58
0,679	138,79
0,727	142,32
0,774	145,31
0,820	149,29
0,864	153,31
0,906	156,43
0,949	160,41
0,988	164,70
1,024	168,29
1,059	172,27
1,090	176,44
1,118	179,69
1,147	183,69
1,173	186,65
1,197	190,57
1,217	194,54
1,235	197,27
1,247	200,66
1,258	203,73
1,268	205,73
1,272	208,15
1,277	210,25
1,279	211,41
1,277	212,59
1,272	213,34
1,264	213,53
1,255	213,45
1,241	212,83
1,225	212,00
1,206	210,44
1,184	208,70
1,159	207,03
1,133	204,77
1,103	202,31
1,071	200,32
1,037	197,66
1,001	195,10
0,961	193,00
0,920	192,36
0,878	187,94
0,834	184,68
0,789	181,43
0,741	178,77
0,694	175,65
0,644	172,56
0,592	169,31
0,540	165,83
0,487	162,44
0,432	159,97
0,379	156,31
0,325	152,68
0,272	149,66
0,218	146,17
0,163	142,98
0,108	140,37
0,053	137,21
-0,002	133,75
-0,055	131,35
-0,105	128,60
-0,154	126,42
-0,201	123,75
-0,247	121,28
-0,292	119,32
-0,335	116,67
-0,379	114,71
-0,419	113,13
-0,459	111,11
-0,496	109,05
-0,531	107,74
-0,564	105,95
-0,592	104,69
-0,619	103,29
-0,644	102,06
-0,668	101,12
-0,690	99,86
-0,707	98,99
-0,723	98,22
-0,735	97,35
-0,745	96,60
-0,751	96,02
-0,756	95,46
-0,757	94,97
-0,757	94,55
-0,756	94,25
-0,751	94,03
-0,743	93,84
-0,734	93,82
-0,719	93,77
-0,702	93,83
-0,682	94,03
-0,660	94,28
-0,636	94,67
-0,609	95,08
-0,583	95,45
-0,553	96,12
-0,520	96,62
-0,484	97,41
-0,448	98,22
-0,407	98,98
-0,366	99,90
-0,322	100,97
-0,278	101,82
-0,232	103,03
-0,184	104,32
-0,137	105,38
-0,088	106,85
-0,038	108,15
0,013	109,90
0,066	111,63
0,119	113,17
0,174	115,23
0,229	117,29
0,284	119,12
0,336	121,55
0,388	124,00
0,440	126,20
0,492	128,83
0,545	131,14
0,597	134,23
0,647	137,24
0,697	140,01
0,748	143,60
0,793	147,22
0,839	150,17
0,881	154,11
0,922	158,20
0,963	161,51
1,001	165,75
1,037	170,00
1,070	173,16
1,103	177,42
1,131	181,46
1,159	184,91
1,183	188,97
1,205	192,61
1,224	195,83
1,238	199,19
1,252	202,37
1,261	204,59
1,269	207,08
1,275	208,99
1,277	210,88
1,277	212,14
1,275	212,84
1,269	213,42
1,261	213,65
1,250	213,33
1,236	212,63
1,217	211,33
1,197	210,01
1,173	208,12
1,148	206,08
1,120	204,21
1,090	201,61
1,057	199,01
1,021	196,82
0,985	194,18
0,944	191,97
0,903	190,69
0,861	186,12
0,817	183,53
0,771	180,55
0,723	177,44
0,674	174,98
0,622	172,26
0,569	170,47
0,517	166,83
0,465	161,63
0,413	157,73
0,360	154,97
0,305	151,29
0,248	148,28
0,192	145,75
0,137	141,72
0,082	138,23
0,030	135,82
-0,022	132,79
-0,074	129,73
-0,124	127,59
-0,173	124,75
-0,220	122,58
-0,267	119,90
-0,311	117,77
-0,355	115,93
-0,397	113,74
-0,438	111,64
-0,476	110,06
-0,512	108,18
-0,545	106,60
-0,576	105,36
-0,605	103,97
-0,631	102,84
-0,655	101,81
-0,679	100,59
-0,697	99,79
-0,715	98,73
-0,729	97,95
-0,738	97,35
-0,748	96,62
-0,752	96,00
-0,756	95,52
-0,757	94,93
-0,757	94,62
-0,754	94,30
-0,748	94,04
-0,738	93,86
-0,727	93,77
-0,712	93,75
-0,693	93,85
-0,672	94,09
-0,650	94,40
-0,625	94,75
-0,598	95,17
-0,570	95,67
-0,539	96,34
-0,504	97,06
-0,468	97,70
-0,430	98,54
-0,390	99,50
-0,349	100,19
-0,305	101,35
-0,259	102,48
-0,212	103,39
-0,165	104,68
-0,116	106,14
-0,066	107,28
-0,014	108,95
0,039	110,33
0,091	112,21
0,143	114,19
0,196	115,92
0,248	118,18
0,302	120,53
0,357	122,45
0,410	125,05
0,463	127,72
0,515	129,84
0,567	132,79
0,619	135,23
0,669	138,34
0,718	141,73
0,767	144,45
0,812	148,38
0,856	152,23
0,898	155,42
0,939	159,37
0,979	163,53
1,016	166,80
1,052	171,09
1,084	175,21
1,114	178,68
1,142	182,56
1,169	186,58
1,192	189,88
1,213	193,79
1,230	197,36
1,244	199,83
1,257	203,21
1,264	205,52
1,272	207,99
1,277	210,10
1,279	211,19
1,277	212,21
1,274	213,18
1,266	213,65
1,257	213,38
1,244	212,90
1,228	212,12
1,210	210,60
1,188	208,88
1,164	207,34
1,137	205,08
1,109	202,61
1,078	200,72
1,043	198,02
1,007	195,39
0,968	193,08
0,928	190,38
0,886	187,31
0,842	185,13
0,798	181,84
0,751	179,22
0,702	176,23
0,653	172,91
0,602	170,26
0,550	167,10
0,496	164,02
0,443	160,49
0,388	156,62
0,335	152,95
0,280	150,04
0,226	146,66
0,171	143,33
0,116	140,77
0,061	137,38
0,008	134,14
-0,044	131,75
-0,094	128,78
-0,145	126,61
-0,193	123,80
-0,240	121,04
-0,286	119,21
-0,330	117,21
-0,372	115,10
-0,413	113,10
-0,452	110,96
-0,490	109,15
-0,526	107,74
-0,559	106,09
-0,589	104,88
-0,616	103,28
-0,641	102,04
-0,664	101,05
-0,686	99,92
-0,705	99,00
-0,721	98,34
-0,734	97,56
-0,743	96,76
-0,749	96,20
-0,754	95,63
-0,757	95,20
-0,757	94,77
-0,756	94,37
-0,751	94,16
-0,745	93,95
-0,734	93,78
-0,721	93,76
-0,704	93,82
-0,685	94,00
-0,663	94,21
-0,641	94,55
-0,614	94,90
-0,586	95,44
-0,556	96,05
-0,523	96,57
-0,490	97,32
-0,452	98,16
-0,413	98,88
-0,372	99,83
-0,328	100,83
-0,284	101,67
-0,239	102,86
-0,190	104,10
-0,141	105,16
-0,093	106,60
-0,044	107,88
0,008	109,53
0,060	111,34
0,112	112,88
0,167	114,94
0,221	117,07
0,275	118,86
0,328	121,21
0,380	123,72
0,432	125,83
0,485	128,56
0,537	131,27
0,589	133,74
0,641	137,00
0,690	139,53
0,738	143,10
0,785	146,44
0,831	149,03
0,875	153,85
0,917	157,92
0,957	161,17
0,994	165,09
1,030	169,44
1,065	172,70
1,096	177,17
1,126	181,31
1,155	184,18
1,180	188,20
1,202	192,17
1,221	195,17
1,236	198,80
1,249	201,26
1,260	204,07
1,268	206,71
1,274	208,74
1,277	210,63
1,279	212,23
1,275	213,00
1,269	213,55
1,261	213,77
1,250	213,57
1,236	212,66
1,219	211,47
1,200	210,14
1,178	208,37
1,153	206,23
1,126	204,36
1,096	201,88
1,063	199,38
1,027	197,38
0,990	194,71
0,950	191,83
0,909	190,13
0,867	186,70
0,823	184,23
0,779	181,94
0,730	177,87
0,682	175,28
0,631	172,11
0,578	168,28
0,526	165,39
0,473	162,49
0,421	158,52
0,369	155,32
0,314	151,63
0,258	148,13
0,201	145,35
0,145	142,19
0,090	139,02
0,036	136,70
-0,016	133,08
-0,066	130,51
-0,116	128,32
-0,165	125,54
-0,212	123,44
-0,259	120,59
-0,305	118,34
-0,349	116,45
-0,391	114,18
-0,432	112,18
-0,468	110,49
-0,504	108,63
-0,539	106,93
-0,572	105,62
-0,600	104,18
-0,627	102,82
-0,652	101,80
-0,674	100,71
-0,694	99,82
-0,712	98,87
-0,726	98,06
-0,737	97,43
-0,746	96,69
-0,754	96,11
-0,757	95,69
-0,757	95,20
-0,756	94,77
-0,754	94,49
-0,749	94,30
-0,741	94,18
-0,730	94,13
-0,715	94,12
-0,696	94,12
-0,675	94,36
-0,652	94,68
-0,628	94,92
-0,603	95,31
-0,575	95,84
-0,543	96,29
-0,509	97,00
-0,473	97,55
-0,435	98,38
-0,396	99,27
-0,353	100,10
-0,309	101,10
-0,265	102,27
-0,218	103,21
-0,170	104,51
-0,121	105,89
-0,071	107,10
-0,020	108,64
0,031	110,03
0,085	111,83
0,137	113,74
0,190	115,26
0,242	116,76
0,295	119,99
0,349	122,03
0,404	124,53
0,457	127,03
0,509	129,21
0,561	131,89
0,611	134,86
0,661	138,21
0,710	141,03
0,759	143,95
0,804	147,76
0,850	151,87
0,892	154,94
0,935	159,12
0,974	163,06
1,012	166,65
1,048	171,14
1,079	175,18
1,111	178,48
1,139	182,17
1,164	186,42
1,189	189,74
1,211	193,46
1,228	196,90
1,243	199,55
1,255	202,69
1,264	205,63
1,271	207,58
1,275	209,61
1,279	211,09
1,277	212,32
1,274	213,22
1,266	213,71
1,257	213,63
1,244	212,97
1,228	212,37
1,211	211,05
1,191	209,25
1,167	207,65
1,142	205,32
1,114	202,93
1,082	200,94
1,049	198,44
1,012	195,69
0,972	193,40
0,931	190,63
0,891	187,62
0,848	185,51
0,804	182,50
0,757	179,17
0,710	176,77
0,660	173,60
0,609	170,61
0,556	167,01
0,503	163,43
0,449	160,55
0,396	156,84
0,342	153,35
0,287	150,64
0,232	147,20
0,178	143,60
0,123	140,90
0,069	138,01
0,016	134,91
-0,036	132,38
-0,088	129,64
-0,137	126,76
-0,185	124,61
-0,234	122,03
-0,280	119,90
-0,324	117,52
-0,366	115,25
-0,407	113,53
-0,448	111,58
-0,485	109,54
-0,522	108,18
-0,554	106,41
-0,584	104,86
-0,613	103,81
-0,638	102,71
-0,660	102,57
-0,682	100,52
-0,702	99,50
-0,719	98,60
-0,732	97,73
-0,741	96,91
-0,749	96,59
-0,752	95,77
-0,756	94,96
-0,757	94,62
-0,756	94,30
-0,752	94,17
-0,746	94,03
-0,737	93,95
-0,724	93,85
-0,708	93,93
-0,688	94,28
-0,666	94,47
-0,642	94,75
-0,617	95,13
-0,591	95,49
-0,561	96,08
-0,528	96,72
-0,493	97,29
-0,457	98,03
-0,418	98,67
-0,379	99,60
-0,335	100,60
-0,291	101,54
-0,245	102,70
-0,198	103,92
-0,149	105,00
-0,099	106,45
-0,050	108,00
0,000	109,31
0,052	111,17
0,104	113,04
0,159	114,62
0,212	116,82
0,267	118,57
0,320	120,95
0,372	123,42
0,426	125,45
0,478	127,98
0,531	130,66
0,583	132,87
0,633	135,40
0,683	138,04
0,732	141,94
0,779	146,21
0,826	149,37
0,869	153,28
0,911	157,25
0,950	160,42
0,990	164,98
1,026	169,27
1,060	172,21
1,093	176,13
1,123	180,62
1,151	183,91
1,177	187,70
1,199	191,64
1,217	194,60
1,235	197,99
1,249	201,57
1,260	203,75
1,268	206,29
1,274	208,62
1,277	210,08
1,277	211,75
1,275	212,93
1,271	213,54
1,263	213,62
1,252	213,54
1,239	212,77
1,224	211,71
1,203	210,44
1,181	208,55
1,156	206,34
1,129	204,61
1,100	202,17
1,068	199,52
1,032	197,50
0,996	194,88
0,957	191,68
0,916	189,78
0,873	186,79
0,831	183,73
0,785	181,56
0,738	179,41
0,690	176,19
0,638	172,41
0,586	168,86
0,534	165,84
0,482	162,24
0,430	158,89
0,375	156,05
0,320	152,28
0,264	148,54
0,207	145,69
0,151	143,09
0,097	139,48
0,046	136,67
-0,006	133,45
-0,058	130,51
-0,108	128,23
-0,157	125,78
-0,206	122,89
-0,254	120,78
-0,298	118,44
-0,344	116,21
-0,385	114,45
-0,426	112,27
-0,463	110,73
-0,500	108,76
-0,534	107,11
-0,567	105,71
-0,597	104,39
-0,624	103,10
-0,649	102,05
-0,672	100,92
-0,691	99,99
-0,710	99,19
-0,724	98,26
-0,735	97,81
-0,745	96,93
-0,751	96,14
-0,756	95,53
-0,757	95,03
-0,757	94,57
-0,754	94,39
-0,749	94,04
-0,743	93,71
-0,732	93,64
-0,718	93,67
-0,699	93,78
-0,677	93,99
-0,655	94,29
-0,631	94,59
-0,606	94,97
-0,578	95,58
-0,548	96,10
-0,514	96,77
-0,478	97,49
-0,440	98,23
-0,401	99,10
-0,360	99,86
-0,317	100,97
-0,272	101,99
-0,225	103,01
-0,178	104,23
-0,127	105,62
-0,079	106,81
-0,028	108,40
0,025	110,09
0,077	111,51
0,129	113,54
0,181	115,67
0,234	117,36
0,287	119,67
0,341	121,62
0,396	124,18
0,449	126,72
0,501	128,84
0,553	131,72
0,605	134,72
0,655	137,20
0,705	140,26
0,752	144,30
0,800	147,12
0,844	149,84
0,888	153,35
0,928	157,55
0,968	162,16
1,005	165,77
1,043	169,74
1,076	173,29
1,107	177,38
1,136	181,52
1,161	186,01
1,186	189,21
1,208	192,64
1,227	196,43
1,241	199,26
1,253	202,65
1,263	205,16
1,271	207,09
1,275	209,20
1,277	210,94
1,277	211,94
1,274	213,03
1,268	213,32
1,258	213,42
1,247	213,05
1,233	212,43
1,216	211,22
1,195	209,56
1,172	208,03
1,145	205,79
1,117	203,42
1,087	201,43
1,052	198,81
1,018	196,11
0,979	193,93
0,939	191,17
0,898	188,29
0,856	185,76
0,811	182,54
0,765	179,37
0,716	176,90
0,668	173,73
0,616	171,30
0,564	167,45
0,511	163,73
0,457	160,13
0,402	157,39
0,349	153,73
0,295	150,47
0,242	147,86
0,187	143,95
0,130	141,32
0,075	138,25
0,024	135,02
-0,030	132,64
-0,080	129,90
-0,130	126,78
-0,179	124,60
-0,228	122,23
-0,273	119,79
-0,317	117,79
-0,361	115,76
-0,402	113,70
-0,443	112,21
-0,481	110,12
-0,517	108,40
-0,550	106,59
-0,581	105,03
-0,609	103,96
-0,635	102,64
-0,658	101,32
-0,680	100,31
-0,699	99,12
-0,716	98,21
-0,730	97,54
-0,741	96,81
-0,749	96,28
-0,754	95,66
-0,757	95,15
-0,757	94,82
-0,757	94,45
-0,752	94,26
-0,746	94,08
-0,737	93,96
-0,726	93,88
-0,710	93,89
-0,691	93,99
-0,669	94,18
-0,646	94,44
-0,619	94,77
-0,592	95,11
-0,564	95,66
-0,533	96,34
-0,498	96,84
-0,462	97,64
-0,423	98,47
-0,382	99,21
-0,339	100,24
-0,295	101,32
-0,250	102,20
-0,204	103,50
-0,156	104,58
-0,105	105,97
-0,057	107,59
-0,006	108,86
0,046	110,61
0,099	112,35
0,152	113,51
0,207	116,25
0,261	118,29
0,314	120,22
0,366	122,55
0,419	123,49
0,473	126,53
0,525	130,26
0,578	130,94
0,628	135,74
0,679	139,06
0,727	141,35
0,774	145,62
0,820	149,47
0,864	152,40
0,906	156,48
0,947	160,81
0,986	163,77
1,023	168,11
1,057	172,35
1,090	175,42
1,122	179,61
1,150	183,08
1,175	187,10
1,197	190,97
1,216	193,90
1,233	197,58
1,247	200,67
1,258	203,30
1,268	206,22
1,274	208,48
1,277	210,03
1,279	211,61
1,277	212,81
1,272	213,24
1,264	213,57
1,253	213,51
1,239	212,91
1,224	211,71
1,205	210,25
1,184	208,75
1,161	206,67
1,133	204,42
1,104	202,49
1,071	199,99
1,037	197,90
1,001	195,29
0,961	192,43
0,920	190,36
0,880	187,56
0,836	184,82
0,790	181,90
0,745	178,78
0,696	175,39
0,646	172,55
0,594	169,20
0,540	166,09
0,489	162,55
0,435	158,91
0,382	155,62
0,327	152,70
0,270	149,02
0,214	145,64
0,159	142,96
0,104	139,61
0,052	136,50
0,000	134,38
-0,052	131,10
-0,102	129,09
-0,152	125,81
-0,201	123,52
-0,248	121,28
-0,294	118,96
-0,338	116,62
-0,380	114,71
-0,421	112,75
-0,460	110,75
-0,496	109,15
-0,531	107,15
-0,562	106,00
-0,594	104,68
-0,620	103,24
-0,646	102,17
-0,669	100,89
-0,690	99,79
-0,707	99,03
-0,723	98,08
-0,735	97,30
-0,745	96,69
-0,751	95,96
-0,756	95,43
-0,757	94,94
-0,757	94,63
-0,756	94,31
-0,751	94,03
-0,745	93,91
-0,734	93,88
-0,719	93,83
-0,701	93,93
-0,680	94,09
-0,658	94,27
-0,635	94,59
-0,609	95,00
-0,581	95,42
-0,551	95,92
-0,517	96,56
-0,482	97,29
-0,446	97,96
-0,405	98,87
-0,364	99,91
-0,320	100,69
-0,275	101,90
-0,229	103,05
-0,182	103,99
-0,135	104,93
-0,085	105,49
-0,035	108,06
0,019	109,78
0,071	111,22
0,123	113,16
0,176	114,85
0,228	116,95
0,281	119,48
0,335	122,03
0,390	123,78
0,443	126,39
0,496	129,11
0,548	131,46
0,600	134,65
0,650	137,03
0,701	140,37
0,749	143,95
0,795	146,95
0,839	150,59
0,883	154,55
0,925	157,82
0,966	161,80
1,004	166,09
1,040	169,50
1,074	173,64
1,104	177,94
1,133	181,18
1,159	185,23
1,184	189,03
1,206	192,35
1,225	195,94
1,239	199,14
1,253	201,97
1,263	204,88
1,271	206,90
1,275	209,13
1,279	211,01
1,279	212,08
1,275	212,99
1,269	213,61
1,260	213,46
1,249	213,13
1,235	212,29
1,217	211,21
1,197	209,59
1,175	207,78
1,150	205,99
1,122	203,66
1,090	201,29
1,057	199,40
1,021	197,81
0,982	194,70
0,942	192,27
0,902	188,89
0,859	186,73
0,815	183,39
0,770	180,69
0,721	177,68
0,672	174,32
0,622	170,56
0,570	167,46
0,517	164,25
0,462	160,61
0,408	157,66
0,353	154,11
0,300	150,95
0,245	148,01
0,190	144,73
0,135	141,35
0,080	138,88
0,027	135,79
-0,025	132,74
-0,077	130,53
-0,127	127,43
-0,176	124,55
-0,223	122,31
-0,270	119,85
-0,314	117,92
-0,358	115,41
-0,399	113,39
-0,440	111,49
-0,478	109,57
-0,514	107,91
-0,547	106,49
-0,578	104,94
-0,606	103,47
-0,633	102,46
-0,657	101,12
-0,679	100,36
-0,699	99,39
-0,716	98,53
-0,730	97,88
-0,741	97,02
-0,749	96,33
-0,754	95,84
-0,757	95,33
-0,759	94,88
-0,757	94,66
-0,752	94,25
-0,746	94,11
-0,738	94,02
-0,727	93,97
-0,712	93,97
-0,693	94,05
-0,672	94,29
-0,649	94,48
-0,624	94,86
-0,595	95,31
-0,567	95,70
-0,536	96,36
-0,503	97,04
-0,467	97,71
-0,427	98,62
-0,386	99,37
-0,344	100,35
-0,300	101,42
-0,254	102,35
-0,209	103,60
-0,160	104,95
-0,112	106,06
-0,063	107,62
-0,013	109,20
0,039	110,60
0,093	112,52
0,148	114,10
0,201	116,30
0,254	118,44
0,308	120,24
0,360	122,27
0,413	124,84
0,467	127,31
0,520	130,10
0,572	132,98
0,622	135,31
0,672	137,81
0,721	141,59
0,768	145,59
0,815	149,21
0,859	152,10
0,902	155,92
0,942	160,01
0,982	163,39
1,018	167,50
1,052	171,65
1,085	175,09
1,117	179,35
1,145	183,31
1,170	186,62
1,194	190,24
1,213	194,20
1,230	196,94
1,244	200,35
1,255	203,24
1,264	205,46
1,272	208,13
1,277	210,22
1,279	211,63
1,277	212,65
1,272	213,24
1,266	213,53
1,255	213,42
1,243	212,96
1,227	211,63
1,208	210,29
1,186	208,83
1,162	206,87
1,136	204,63
1,106	202,74
1,074	200,20
1,040	197,60
1,004	195,66
0,964	194,64
0,925	190,71
0,883	188,48
0,840	184,92
0,795	181,76
0,748	179,11
0,699	176,51
0,649	173,76
0,597	169,84
0,543	166,46
0,492	163,52
0,440	159,63
0,388	155,95
0,333	152,86
0,276	149,31
0,220	145,81
0,163	143,42
0,108	139,97
0,055	136,93
0,003	134,36
-0,049	131,40
-0,097	128,73
-0,148	126,34
-0,196	123,65
-0,243	121,64
-0,291	119,07
-0,335	116,88
-0,377	114,87
-0,418	112,92
-0,456	110,83
-0,492	109,37
-0,528	107,58
-0,561	105,98
-0,591	104,76
-0,619	103,28
-0,644	102,04
-0,668	101,15
-0,688	100,06
-0,705	99,28
-0,721	98,30
-0,735	97,43
-0,745	96,80
-0,751	96,14
-0,756	95,53
-0,757	95,16
-0,757	94,73
-0,754	94,38
-0,751	94,14
-0,743	94,09
-0,734	94,06
-0,719	94,07
-0,702	94,11
-0,682	94,25
-0,660	94,57
-0,636	94,84
-0,611	95,20
-0,584	95,63
-0,553	96,19
-0,520	96,69
-0,484	97,44
-0,448	98,04
-0,408	98,90
-0,368	99,89
-0,325	100,73
-0,280	101,85
-0,234	103,08
-0,187	104,10
-0,138	105,52
-0,090	107,02
-0,038	108,27
0,014	109,93
0,068	111,77
0,119	113,28
0,171	115,26
0,225	117,00
0,276	119,19
0,331	121,54
0,385	123,25
0,438	126,24
0,492	129,07
0,545	131,34
0,595	134,39
0,646	136,76
0,696	140,08
0,745	143,92
0,790	146,87
0,836	150,56
0,880	154,48
0,922	157,81
0,963	161,91
1,001	166,01
1,037	169,35
1,070	173,44
1,101	177,35
1,129	180,70
1,156	184,51
1,183	188,61
1,205	192,07
1,224	195,29
1,239	198,91
1,252	201,54
1,263	204,37
1,271	207,21
1,275	209,11
1,279	210,78
1,279	212,08
1,275	213,10
1,271	213,48
1,261	213,63
1,249	213,36
1,235	212,49
1,217	211,45
1,199	209,96
1,177	207,98
1,151	206,24
1,123	204,10
1,092	201,57
1,059	199,41
1,024	196,81
0,986	194,10
0,947	191,69
0,906	188,90
0,864	186,03
0,820	183,27
0,773	181,03
0,726	178,84
0,675	177,60
0,625	172,70
0,573	168,23
0,522	165,33
0,470	161,70
0,415	158,20
0,361	155,55
0,306	151,79
0,251	149,76
0,196	145,19
0,140	142,73
0,086	138,95
0,033	135,52
-0,020	132,54
-0,071	130,49
-0,121	127,28
-0,170	124,35
-0,218	122,45
-0,264	119,77
-0,309	117,53
-0,352	115,91
-0,394	113,85
-0,435	111,50
-0,473	109,94
-0,509	108,21
-0,543	106,86
-0,575	105,22
-0,603	103,97
-0,630	102,81
-0,653	101,62
-0,675	100,44
-0,696	99,57
-0,713	98,48
-0,727	97,61
-0,738	96,95
-0,748	96,31
-0,752	95,78
-0,756	95,24
-0,757	94,82
-0,757	94,46
-0,754	94,14
-0,748	93,90
-0,740	93,81
-0,727	93,79
-0,712	93,78
-0,694	93,89
-0,672	94,12
-0,649	94,39
-0,625	94,77
-0,598	95,21
-0,570	95,67
-0,539	96,29
-0,506	96,99
-0,470	97,60
-0,430	98,42
-0,390	99,34
-0,347	100,10
-0,303	101,17
-0,259	102,08
-0,214	103,28
-0,165	104,61
-0,116	105,72
-0,066	107,21
-0,016	108,68
0,036	107,61
0,088	110,95
0,143	113,85
0,196	115,74
0,250	118,01
0,303	119,42
0,355	121,40
0,408	124,60
0,462	127,64
0,515	130,26
0,567	133,00
0,619	135,36
0,668	138,55
0,716	142,30
0,765	145,12
0,811	148,71
0,855	152,26
0,897	155,63
0,938	159,90
0,977	163,92
1,015	167,27
1,049	171,30
1,084	174,71
1,114	178,72
1,142	183,15
1,169	186,16
1,191	190,26
1,211	193,88
1,230	196,84
1,244	200,56
1,257	203,40
1,266	205,48
1,272	207,76
1,277	209,87
1,279	211,21
1,277	212,51
1,274	213,28
1,266	213,56
1,257	213,48
1,244	212,97
1,230	212,15
1,211	210,80
1,189	209,42
1,166	207,30
1,139	205,16
1,111	203,24
1,079	200,75
1,045	198,06
1,008	195,97
0,971	192,97
0,930	190,31
0,889	187,83
0,845	184,98
0,801	181,78
0,754	179,13
0,705	175,86
0,655	172,35
0,603	169,77
0,551	166,26
0,498	162,70
0,446	159,81
0,394	156,25
0,339	153,52
0,283	150,12
0,226	146,71
0,170	144,16
0,115	140,90
0,061	137,39
0,011	135,00
-0,041	131,67
-0,091	128,77
-0,141	126,63
-0,190	123,95
-0,239	121,26
-0,284	119,18
-0,330	116,67
-0,372	115,04
-0,413	112,94
-0,451	110,89
-0,489	109,39
-0,523	107,66
-0,556	106,00
-0,587	104,62
-0,616	103,20
-0,641	102,09
-0,664	101,12
-0,685	99,88
-0,704	98,94
-0,719	98,22
-0,732	97,30
-0,743	96,62
-0,749	95,99
-0,754	95,28
-0,757	94,87
-0,757	94,44
-0,756	94,09
-0,751	93,81
-0,745	93,57
-0,735	93,51
-0,721	93,56
-0,704	93,61
-0,685	93,78
-0,663	93,95
-0,639	94,34
-0,616	94,68
-0,589	95,20
-0,558	95,78
-0,525	96,38
-0,490	97,04
-0,452	97,88
-0,415	98,60
-0,374	99,58
-0,330	100,44
-0,286	101,49
-0,240	102,65
-0,193	103,64
-0,145	104,89
-0,096	106,05
-0,044	106,40
0,008	109,33
0,060	110,77
0,112	111,52
0,165	114,73
0,217	116,24
0,270	118,62
0,324	121,43
0,379	123,32
0,432	126,18
0,485	128,95
0,537	131,42
0,589	134,15
0,639	137,35
0,690	139,90
0,737	143,24
0,784	146,94
0,829	149,99
0,873	153,79
0,916	157,02
0,957	161,13
0,994	165,15
1,030	168,66
1,065	173,02
1,096	177,05
1,125	180,08
1,153	184,15
1,178	188,28
1,202	191,50
1,221	195,14
1,236	198,50
1,250	201,32
1,261	204,15
1,269	206,78
1,274	208,73
1,277	210,58
1,279	212,03
1,275	212,92
1,271	213,56
1,263	213,70
1,252	213,43
1,238	212,59
1,222	211,59
1,202	210,12
1,180	208,21
1,155	206,47
1,126	204,26
1,096	201,85
1,063	199,82
1,029	197,19
0,991	194,51
0,952	192,10
0,913	189,27
0,870	186,44
0,826	183,77
0,781	180,79
0,732	177,56
0,683	174,95
0,633	171,56
0,581	168,05
0,528	165,09
0,474	161,41
0,419	157,82
0,366	155,07
0,313	151,69
0,259	148,83
0,206	145,30
0,151	142,25
0,094	140,07
0,039	136,36
-0,014	133,51
-0,066	131,11
-0,116	128,07
-0,163	125,54
-0,210	123,32
-0,258	120,60
-0,303	118,16
-0,347	116,12
-0,390	114,05
-0,430	112,32
-0,468	110,44
-0,504	108,30
-0,539	107,05
-0,570	105,45
-0,600	103,98
-0,625	103,00
-0,650	101,73
-0,674	100,64
-0,694	99,71
-0,712	98,75
-0,726	98,04
-0,737	97,41
-0,746	96,64
-0,752	96,15
-0,756	95,56
-0,757	95,04
-0,757	94,76
-0,754	94,42
-0,748	94,18
-0,740	94,02
-0,729	94,01
-0,715	94,04
-0,697	94,16
-0,677	94,37
-0,653	94,66
-0,628	94,98
-0,602	95,42
-0,573	95,89
-0,543	96,49
-0,511	97,15
-0,474	97,71
-0,435	98,50
-0,396	99,40
-0,352	100,14
-0,309	101,13
-0,265	102,27
-0,220	103,24
-0,173	104,49
-0,123	105,61
-0,074	107,14
-0,024	108,74
0,028	109,99
0,082	111,41
0,135	113,78
0,190	115,39
0,243	116,95
0,297	119,43
0,349	121,70
0,401	124,17
0,454	126,92
0,507	129,79
0,559	132,52
0,611	135,06
0,661	138,77
0,710	141,94
0,759	144,85
0,804	148,64
0,850	152,15
0,892	155,28
0,933	159,52
0,972	163,50
1,010	166,86
1,046	171,18
1,079	175,28
1,111	178,48
1,139	182,75
1,166	186,55
1,189	189,71
1,210	193,56
1,227	196,34
1,243	199,88
1,255	202,98
1,264	205,11
1,272	207,58
1,277	209,67
1,279	211,08
1,277	212,49
1,274	213,40
1,268	213,80
1,258	213,68
1,246	213,23
1,230	212,44
1,213	211,05
1,192	209,36
1,169	207,61
1,142	205,41
1,114	203,09
1,082	201,16
1,049	198,44
1,013	196,33
0,975	193,42
0,935	190,62
0,892	188,24
0,850	185,62
0,806	183,70
0,760	180,65
0,712	177,47
0,661	175,00
0,609	170,87
0,558	167,22
0,504	164,18
0,452	160,55
0,401	156,55
0,347	153,76
0,292	150,45
0,236	146,73
0,178	143,39
0,123	140,83
0,068	137,51
0,016	134,54
-0,036	131,95
-0,086	129,55
-0,135	127,13
-0,184	124,49
-0,231	121,81
-0,278	119,94
-0,324	117,46
-0,368	115,29
-0,410	113,59
-0,448	111,50
-0,484	109,73
-0,518	108,29
-0,551	106,48
-0,583	105,19
-0,611	103,77
-0,638	102,36
-0,663	101,39
-0,683	100,32
-0,701	99,21
-0,716	98,44
-0,730	97,59
-0,741	96,88
-0,749	96,28
-0,754	95,72
-0,757	95,22
-0,757	94,79
-0,756	94,38
-0,751	94,16
-0,746	93,91
-0,737	93,76
-0,724	93,73
-0,707	93,75
-0,686	93,93
-0,664	94,09
-0,642	94,43
-0,617	94,75
-0,591	95,16
-0,561	95,74
-0,529	96,25
-0,495	96,99
-0,457	97,55
-0,418	97,20
-0,377	98,50
-0,335	100,24
-0,291	101,30
-0,247	102,50
-0,199	103,35
-0,152	104,13
-0,102	106,04
-0,052	107,91
0,002	109,47
0,055	110,88
0,108	112,13
0,160	113,88
0,212	116,49
0,264	118,73
0,317	120,88
0,371	123,09
0,424	125,04
0,478	127,52
0,531	129,77
0,583	133,29
0,635	136,78
0,683	139,25
0,732	142,71
0,778	146,41
0,823	149,26
0,867	153,58
0,909	157,43
0,952	160,62
0,990	164,81
1,027	168,83
1,062	172,22
1,093	176,36
1,123	180,63
1,150	183,76
1,175	187,84
1,199	191,76
1,219	194,73
1,235	198,30
1,249	200,79
1,260	203,76
1,269	206,30
1,274	208,20
1,277	209,92
1,279	211,53
1,275	212,60
1,271	213,20
1,263	213,48
1,253	213,44
1,239	212,81
1,224	211,58
1,205	210,43
1,183	208,60
1,158	206,50
1,131	204,67
1,101	202,17
1,068	199,57
1,034	197,43
0,996	194,81
0,957	191,61
0,916	189,50
0,873	186,59
0,831	184,16
0,785	181,03
0,738	177,73
0,690	175,24
0,638	171,80
0,587	168,58
0,534	165,64
0,481	162,15
0,427	158,63
0,374	156,01
0,319	152,47
0,264	148,58
0,210	145,75
0,154	142,51
0,099	139,24
0,046	136,62
-0,008	133,71
-0,060	130,57
-0,110	128,06
-0,159	125,84
-0,207	123,90
-0,254	120,99
-0,300	118,76
-0,344	117,20
-0,386	114,79
-0,427	112,24
-0,465	110,73
-0,503	108,83
-0,536	106,98
-0,569	105,89
-0,598	104,48
-0,624	102,94
-0,649	101,79
-0,671	100,74
-0,693	99,85
-0,710	98,88
-0,726	98,10
-0,737	97,44
-0,746	96,57
-0,752	95,95
-0,757	95,47
-0,759	94,95
-0,759	94,61
-0,754	94,36
-0,749	94,05
-0,740	93,95
-0,730	93,88
-0,716	93,93
-0,699	93,95
-0,679	94,14
-0,657	94,40
-0,631	94,68
-0,605	95,07
-0,576	95,64
-0,547	96,08
-0,514	96,77
-0,479	97,53
-0,440	98,19
-0,401	99,12
-0,358	99,94
-0,316	101,00
-0,270	102,16
-0,225	103,14
-0,176	104,46
-0,127	105,82
-0,079	107,03
-0,027	108,57
0,024	109,93
0,077	110,75
0,129	113,64
0,184	115,18
0,237	117,29
0,291	119,77
0,342	121,41
0,396	124,28
0,449	127,03
0,501	129,45
0,554	132,07
0,605	135,25
0,655	137,90
0,705	141,13
0,754	145,03
0,800	147,71
0,845	151,53
0,888	155,39
0,930	158,67
0,969	162,46
1,007	165,47
1,041	168,92
1,076	174,32
1,107	177,85
1,137	181,85
1,164	185,82
1,188	188,78
1,208	193,16
1,225	197,16
1,241	199,42
1,253	202,65
1,263	205,55
1,271	207,36
1,275	209,73
1,277	211,49
1,277	212,31
1,274	213,00
1,268	213,63
1,260	213,58
1,247	213,12
1,232	212,42
1,214	211,05
1,194	209,24
1,170	207,70
1,144	205,84
1,115	203,36
1,085	201,37
1,052	198,83
1,016	196,16
0,979	193,84
0,938	190,97
0,897	187,86
0,855	185,44
0,811	182,25
0,765	179,33
0,716	176,94
0,666	173,70
0,616	170,06
0,562	167,31
0,509	163,86
0,457	160,74
0,405	157,71
0,352	156,91
0,297	151,27
0,240	148,52
0,184	144,59
0,127	142,68
0,074	138,47
0,022	135,65
-0,030	132,55
-0,082	129,64
-0,132	127,01
-0,181	124,88
-0,228	121,73
-0,275	119,20
-0,320	117,59
-0,363	115,26
-0,404	113,45
-0,443	111,50
-0,481	109,62
-0,515	108,04
-0,550	106,53
-0,581	104,81
-0,609	103,56
-0,636	102,34
-0,660	101,28
-0,680	100,27
-0,699	99,06
-0,715	98,26
-0,729	97,50
-0,741	96,90
-0,749	96,42
-0,754	95,73
-0,757	95,19
-0,757	94,89
-0,756	94,58
-0,752	94,33
-0,746	94,19
-0,737	94,04
-0,724	93,95
-0,708	93,98
-0,688	94,17
-0,668	94,39
-0,644	94,66
-0,620	94,96
-0,594	95,33
-0,565	95,92
-0,533	96,59
-0,496	97,16
-0,460	97,95
-0,423	98,85
-0,382	99,61
-0,341	100,61
-0,297	101,48
-0,250	102,64
-0,203	103,90
-0,154	104,91
-0,104	106,37
-0,055	107,90
-0,003	109,20
0,049	110,97
0,101	112,94
0,154	114,48
0,206	116,63
0,259	118,41
0,313	120,68
0,366	123,03
0,419	124,91
0,473	127,79
0,526	130,71
0,576	133,02
0,628	136,03
0,677	139,36
0,726	141,94
0,773	145,83
0,818	149,44
0,864	152,28
0,906	155,98
0,947	160,50
0,986	163,75
1,023	167,96
1,057	172,43
1,090	175,71
1,120	179,48
1,147	183,24
1,173	186,78
1,197	191,11
1,217	194,37
1,233	197,94
1,247	200,89
1,258	203,27
1,266	206,11
1,272	208,63
1,277	210,39
1,279	211,65
1,277	212,76
1,272	213,39
1,264	213,73
1,255	213,52
1,241	212,85
1,224	211,53
1,205	210,01
1,183	208,70
1,159	206,71
1,133	204,47
1,103	202,57
1,071	199,96
1,037	197,99
0,999	195,27
0,961	192,36
0,920	190,24
0,878	187,06
0,834	184,08
0,790	181,74
0,743	178,42
0,694	175,34
0,644	172,82
0,594	170,19
0,540	166,05
0,487	162,81
0,434	159,07
0,380	155,53
0,325	153,20
0,270	149,92
0,215	147,80
0,160	143,31
0,105	139,64
0,052	136,86
-0,002	133,91
-0,053	130,80
-0,104	128,77
-0,154	125,77
-0,203	122,90
-0,250	121,03
-0,294	118,58
-0,338	116,43
-0,380	114,57
-0,421	112,53
-0,460	110,87
-0,496	108,87
-0,531	106,86
-0,564	105,75
-0,594	104,31
-0,620	102,99
-0,646	101,95
-0,668	100,71
-0,690	99,58
-0,708	98,70
-0,723	97,84
-0,735	97,15
-0,745	96,42
-0,751	95,77
-0,756	95,32
-0,759	94,86
-0,757	94,60
-0,756	94,31
-0,749	94,13
-0,743	93,96
-0,732	93,87
-0,718	93,91
-0,701	94,01
-0,682	94,17
-0,660	94,38
-0,635	94,63
-0,609	95,06
-0,581	95,56
-0,551	96,04
-0,518	96,73
-0,484	97,50
-0,446	98,14
-0,405	99,06
-0,363	100,06
-0,320	100,87
-0,276	102,02
-0,231	102,96
-0,184	104,15
-0,135	105,54
-0,085	106,64
-0,035	107,92
0,017	109,76
0,069	110,86
0,123	113,24
0,178	115,27
0,231	116,90
0,283	117,88
0,336	121,67
0,388	123,89
0,441	126,89
0,495	128,91
0,548	131,51
0,600	134,26
0,650	137,18
0,699	139,54
0,746	143,98
0,792	147,17
0,837	150,85
0,881	154,86
0,924	157,97
0,964	161,97
1,002	166,43
1,038	169,82
1,071	173,75
1,103	177,63
1,133	181,28
1,159	185,30
1,184	188,66
1,205	192,33
1,224	195,90
1,239	198,59
1,253	201,87
1,263	204,85
1,271	206,69
1,275	208,87
1,279	210,63
1,279	211,97
1,275	213,02
1,269	213,50
1,261	213,40
1,249	213,10
1,235	212,33
1,217	211,33
1,197	209,65
1,173	207,71
1,148	205,85
1,120	203,57
1,090	201,65
1,057	199,03
1,021	196,37
0,985	194,22
0,946	191,36
0,905	188,68
0,862	186,40
0,817	182,99
0,771	179,93
0,723	177,29
0,674	174,11
0,624	170,54
0,572	167,83
0,518	164,40
0,467	160,92
0,413	158,36
0,361	155,33
0,306	151,08
0,250	147,98
0,192	144,75
0,135	141,55
0,080	138,82
0,028	136,06
-0,024	133,32
-0,074	130,16
-0,123	127,78
-0,173	125,35
-0,220	122,82
-0,269	120,06
-0,314	118,17
-0,357	115,80
-0,399	113,69
-0,438	112,12
-0,474	109,97
-0,511	108,40
-0,545	106,97
-0,576	105,21
-0,606	103,82
-0,631	102,59
-0,657	101,40
-0,679	100,34
-0,697	99,29
-0,715	98,33
-0,729	97,57
-0,740	96,76
-0,749	96,29
-0,754	95,61
-0,757	94,97
-0,757	94,59
-0,756	94,29
-0,752	94,07
-0,748	93,91
-0,740	93,83
-0,727	93,81
-0,712	93,91
-0,693	94,12
-0,672	94,34
-0,649	94,59
-0,625	94,93
-0,600	95,31
-0,570	95,83
-0,539	96,46
-0,504	96,99
-0,467	97,69
-0,429	98,52
-0,390	99,21
-0,347	100,21
-0,303	101,28
-0,258	102,20
-0,212	103,43
-0,163	104,51
-0,115	105,91
-0,064	107,40
-0,014	108,70
0,039	110,54
0,093	112,35
0,146	113,90
0,198	116,05
0,250	118,11
0,302	119,32
0,355	122,32
0,410	124,43
0,463	127,13
0,517	130,01
0,569	132,17
0,619	135,03
0,669	138,80
0,718	141,56
0,765	145,05
0,812	148,74
0,856	151,93
0,898	155,65
0,941	160,09
0,980	163,32
1,018	167,45
1,052	171,57
1,085	174,93
1,115	179,28
1,142	182,50
1,169	186,39
1,194	190,45
1,214	193,55
1,232	197,03
1,246	200,30
1,257	202,47
1,266	205,26
1,272	207,98
1,277	209,55
1,279	211,40
1,279	212,44
1,274	213,23
1,266	213,52
1,257	213,73
1,243	213,28
1,227	212,08
1,208	210,62
1,188	209,19
1,164	207,19
1,137	205,43
1,109	202,97
1,078	200,33
1,043	198,30
1,007	195,67
0,969	192,64
0,928	190,55
0,886	187,67
0,844	184,67
0,798	182,21
0,752	179,24
0,704	178,29
0,653	174,19
0,603	170,05
0,551	167,83
0,498	163,30
0,445	159,62
0,390	156,75
0,335	153,44
0,281	149,69
0,226	146,73
0,171	144,26
0,116	140,46
0,063	137,64
0,009	134,66
-0,044	131,44
-0,096	129,04
-0,145	126,75
-0,193	123,67
-0,240	121,87
-0,284	119,25
-0,330	116,80
-0,372	115,14
-0,415	113,06
-0,454	111,04
-0,490	109,23
-0,526	107,54
-0,559	106,21
-0,589	104,56
-0,616	103,23
-0,641	102,08
-0,664	100,83
-0,686	99,71
-0,705	98,88
-0,721	97,95
-0,734	97,12
-0,745	96,57
-0,751	95,80
-0,756	95,32
-0,757	94,91
-0,757	94,53
-0,756	94,25
-0,751	94,06
-0,743	93,89
-0,734	93,83
-0,721	93,81
-0,705	93,88
-0,686	94,03
-0,664	94,31
-0,641	94,56
-0,614	95,00
-0,586	95,51
-0,558	95,97
-0,525	96,66
-0,490	97,40
-0,452	98,09
-0,413	98,95
-0,372	99,92
-0,328	100,71
-0,284	101,80
-0,240	102,69
-0,193	103,78
-0,143	104,69
-0,094	104,39
-0,044	107,67
0,006	109,27
0,058	110,87
0,112	112,71
0,165	114,14
0,218	115,75
0,272	119,21
0,325	121,53
0,377	123,66
0,429	126,23
0,482	128,30
0,536	131,29
0,587	134,46
0,639	137,17
0,688	140,05
0,737	143,31
0,784	146,27
0,829	149,81
0,873	152,95
0,916	156,95
0,955	161,16
0,993	164,63
1,029	168,78
1,063	173,06
1,096	176,45
1,126	180,47
1,155	184,54
1,180	187,84
1,200	191,72
1,219	195,23
1,236	198,02
1,249	201,24
1,260	204,19
1,268	206,54
1,274	208,72
1,277	210,41
1,277	211,71
1,275	212,76
1,271	213,40
1,263	213,55
1,252	213,26
1,238	212,62
1,221	211,64
1,200	210,06
1,178	208,55
1,153	206,50
1,126	204,09
1,096	202,16
1,065	199,57
1,029	197,03
0,993	194,96
0,953	192,43
0,913	189,83
0,870	189,63
0,826	184,46
0,781	181,90
0,734	178,04
0,685	175,08
0,633	171,60
0,581	168,77
0,529	164,82
0,476	161,30
0,424	158,23
0,372	154,74
0,317	151,94
0,261	148,51
0,203	145,34
0,146	142,90
0,093	139,47
0,039	136,13
-0,013	133,99
-0,063	130,94
-0,112	128,07
-0,162	125,85
-0,210	123,17
-0,258	120,80
-0,303	118,95
-0,347	116,27
-0,390	114,16
-0,429	112,32
-0,467	110,61
-0,503	108,84
-0,537	107,31
-0,569	105,53
-0,598	104,27
-0,625	102,92
-0,650	101,73
-0,672	100,86
-0,693	99,68
-0,710	98,78
-0,724	98,15
-0,737	97,34
-0,746	96,73
-0,752	96,09
-0,756	95,55
-0,757	95,14
-0,756	94,82
-0,754	94,57
-0,749	94,31
-0,741	94,19
-0,730	94,18
-0,715	94,17
-0,696	94,27
-0,675	94,45
-0,653	94,69
-0,630	95,02
-0,605	95,38
-0,576	95,93
-0,545	96,52
-0,511	97,06
-0,474	97,85
-0,437	98,65
-0,397	99,39
-0,355	100,35
-0,313	101,24
-0,267	102,30
-0,221	103,56
-0,173	104,54
-0,124	105,95
-0,074	107,40
-0,022	108,70
0,030	110,40
0,082	112,12
0,134	113,19
0,185	115,82
0,237	117,88
0,291	119,92
0,346	122,36
0,401	124,34
0,454	126,51
0,506	129,82
0,558	132,07
0,609	135,33
0,660	138,41
0,708	140,89
0,757	144,28
0,803	148,07
0,847	151,25
0,891	154,96
0,931	158,98
0,972	162,35
1,010	166,50
1,046	169,85
1,079	174,05
1,109	178,11
1,137	181,59
1,164	185,53
1,189	189,39
1,210	192,62
1,228	196,29
1,243	199,74
1,255	202,49
1,264	205,18
1,272	207,80
1,277	209,39
1,279	211,21
1,279	212,46
1,275	213,33
1,268	213,71
1,258	213,55
1,246	213,24
1,230	212,23
1,213	210,78
1,192	209,48
1,169	207,49
1,144	205,22
1,115	203,43
1,085	200,83
1,051	198,80
1,015	196,20
0,977	193,37
0,936	191,04
0,895	188,28
0,853	185,41
0,809	182,73
0,762	179,61
0,715	176,63
0,664	174,06
0,614	170,84
0,562	167,34
0,509	164,56
0,454	160,58
0,401	156,81
0,346	153,99
0,292	150,53
0,237	147,11
0,184	144,37
0,127	140,91
0,072	137,77
0,019	135,28
-0,033	132,35
-0,085	130,30
-0,134	127,46
-0,182	124,50
-0,229	122,40
-0,275	120,18
-0,320	118,57
-0,364	115,57
-0,405	113,45
-0,446	111,51
-0,482	110,04
-0,518	108,01
-0,551	106,82
-0,583	105,45
-0,611	103,66
-0,636	102,23
-0,660	101,34
-0,682	100,21
-0,701	99,26
-0,718	98,47
-0,732	97,47
-0,743	96,81
-0,751	96,18
-0,756	95,70
-0,757	95,09
-0,759	94,71
-0,757	94,44
-0,752	94,18
-0,746	94,05
-0,737	93,98
-0,724	94,03
-0,708	94,05
-0,691	94,19
-0,669	94,47
-0,646	94,80
-0,620	95,09
-0,592	95,62
-0,564	96,01
-0,533	96,62
-0,498	97,35
-0,462	97,97
-0,423	98,79
-0,380	99,72
-0,338	100,52
-0,294	101,56
-0,250	102,71
-0,203	103,72
-0,156	105,04
-0,105	106,16
-0,057	107,69
-0,005	109,34
0,047	110,64
0,099	112,55
0,154	114,45
0,209	116,05
0,261	117,83
0,313	120,82
0,364	122,60
0,418	125,22
0,471	127,51
0,525	130,28
0,578	132,75
0,628	135,40
0,679	139,27
0,727	142,67
0,773	145,59
0,820	149,04
0,864	152,90
0,906	155,78
0,947	159,78
0,986	164,11
1,023	167,49
1,057	171,75
1,090	176,04
1,122	179,54
1,148	183,25
1,173	187,81
1,197	190,92
1,216	194,41
1,233	197,41
1,247	200,67
1,258	203,53
1,268	205,78
1,274	208,08
1,277	209,94
1,279	211,29
1,277	212,58
1,272	213,21
1,264	213,48
1,253	213,41
1,241	212,76
1,225	211,93
1,205	210,52
1,184	208,74
1,159	206,94
1,133	204,69
1,104	202,24
1,073	200,15
1,038	197,43
1,001	194,83
0,963	192,35
0,922	189,84
0,880	187,35
0,837	184,26
0,792	181,25
0,745	178,52
0,696	175,68
0,646	172,07
0,594	169,51
0,540	166,05
0,489	162,47
0,437	159,54
0,383	155,85
0,328	152,38
0,272	149,44
0,215	145,97
0,159	142,77
0,104	140,19
0,052	136,81
0,000	134,01
-0,052	131,48
-0,101	128,43
-0,151	126,21
-0,199	123,59
-0,248	121,02
-0,294	119,08
-0,338	116,53
-0,380	114,22
-0,421	112,59
-0,459	110,69
-0,496	108,82
-0,531	107,46
-0,562	105,70
-0,594	104,31
-0,620	103,11
-0,646	101,93
-0,669	100,97
-0,690	99,75
-0,707	98,67
-0,723	98,12
-0,735	97,24
-0,746	96,51
-0,752	96,02
-0,757	95,45
-0,759	94,93
-0,757	94,67
-0,756	94,34
-0,751	94,06
-0,743	93,96
-0,734	93,87
-0,719	93,91
-0,701	93,89
-0,682	94,10
-0,660	94,29
-0,636	94,59
-0,611	94,99
-0,584	95,44
-0,553	96,00
-0,520	96,53
-0,484	97,30
-0,446	98,08
-0,407	98,81
-0,366	99,85
-0,324	100,88
-0,280	101,78
-0,234	102,96
-0,185	104,20
-0,138	105,26
-0,088	106,67
-0,036	107,82
0,016	109,31
0,069	110,25
0,119	112,92
0,171	114,83
0,223	117,06
0,276	118,90
0,330	121,23
0,385	123,45
0,440	126,02
0,493	128,95
0,545	131,63
0,595	134,07
0,646	137,30
0,694	139,94
0,743	143,47
0,790	147,22
0,836	150,22
0,880	153,93
0,922	158,05
0,961	161,40
0,999	165,47
1,035	169,49
1,070	173,00
1,101	177,13
1,131	181,30
1,158	184,71
1,183	188,28
1,205	192,37
1,224	195,12
1,238	198,92
1,250	201,29
1,260	204,24
1,269	206,78
1,275	208,56
1,279	210,55
1,279	211,85
1,275	212,74
1,271	213,33
1,261	213,49
1,250	213,22
1,236	212,53
1,217	211,14
1,199	209,77
1,175	207,89
1,150	205,89
1,123	203,95
1,093	201,50
1,060	198,82
1,026	196,75
0,988	194,29
0,949	193,61
0,908	191,39
0,864	186,59
0,820	184,28
0,774	180,63
0,727	177,06
0,679	174,94
0,628	171,86
0,576	167,52
0,523	164,48
0,470	161,22
0,415	157,69
0,361	155,12
0,306	151,29
0,250	147,90
0,196	145,25
0,141	141,81
0,086	138,58
0,033	136,00
-0,019	132,79
-0,071	129,83
-0,121	127,70
-0,170	124,91
-0,217	122,91
-0,264	120,29
-0,308	117,86
-0,352	115,95
-0,394	113,72
-0,435	111,64
-0,473	109,97
-0,509	108,19
-0,543	106,44
-0,575	105,28
-0,603	103,71
-0,630	102,37
-0,653	101,40
-0,675	100,15
-0,696	99,44
-0,713	98,58
-0,727	97,58
-0,738	96,94
-0,748	96,20
-0,754	95,65
-0,757	95,15
-0,759	94,68
-0,757	94,30
-0,754	94,01
-0,748	93,88
-0,738	93,69
-0,727	93,69
-0,712	93,72
-0,696	93,82
-0,675	94,05
-0,653	94,37
-0,628	94,68
-0,600	95,15
-0,572	95,69
-0,540	96,20
-0,506	96,94
-0,471	97,49
-0,434	98,37
-0,393	99,27
-0,352	100,05
-0,308	101,09
-0,262	102,22
-0,215	103,21
-0,168	104,39
-0,118	105,22
-0,069	106,35
-0,019	108,51
0,031	109,76
0,085	111,90
0,138	113,88
0,192	115,33
0,245	117,62
0,298	120,41
0,350	122,46
0,404	124,88
0,457	127,48
0,511	129,62
0,564	132,50
0,614	135,16
0,664	138,31
0,713	141,46
0,760	144,42
0,806	147,97
0,851	151,98
0,895	155,21
0,936	159,26
0,975	163,35
1,012	166,62
1,046	170,92
1,079	174,97
1,111	178,25
1,140	182,39
1,167	186,29
1,191	189,30
1,211	193,45
1,228	197,06
1,243	199,75
1,255	202,82
1,264	205,02
1,272	207,68
1,277	209,73
1,279	211,24
1,279	212,27
1,274	213,08
1,268	213,47
1,258	213,37
1,246	212,90
1,230	212,11
1,211	210,69
1,191	209,00
1,167	207,47
1,140	205,22
1,112	202,93
1,082	200,96
1,048	198,35
1,012	195,69
0,974	193,36
0,933	190,66
0,892	188,85
0,848	186,03
0,804	183,96
0,759	179,69
0,710	176,74
0,660	173,30
0,609	170,71
0,556	167,14
0,503	163,17
0,451	160,12
0,397	156,70
0,342	153,47
0,286	150,31
0,229	147,08
0,174	143,70
0,119	141,18
0,068	137,92
0,016	134,72
-0,036	132,00
-0,086	129,54
-0,137	126,72
-0,185	124,36
-0,234	121,82
-0,280	119,58
-0,325	117,38
-0,368	115,04
-0,408	113,67
-0,448	111,59
-0,484	109,65
-0,520	108,27
-0,553	106,34
-0,584	104,70
-0,613	103,75
-0,638	102,43
-0,661	101,49
-0,683	100,42
-0,702	99,32
-0,718	98,58
-0,730	97,67
-0,741	96,99
-0,749	96,42
-0,754	95,79
-0,757	95,18
-0,757	94,78
-0,756	94,47
-0,752	94,13
-0,746	94,02
-0,737	93,87
-0,724	93,79
-0,707	93,85
-0,688	94,04
-0,666	94,28
-0,642	94,58
-0,619	95,04
-0,592	95,33
-0,562	95,93
-0,529	96,55
-0,495	97,25
-0,457	98,08
-0,419	98,72
-0,379	99,65
-0,336	100,58
-0,292	101,16
-0,247	101,82
-0,199	103,78
-0,151	104,88
-0,102	106,39
-0,052	107,54
0,000	109,00
0,052	110,70
0,104	112,76
0,156	115,07
0,207	116,86
0,261	118,64
0,316	121,02
0,371	123,55
0,424	125,64
0,478	128,35
0,529	130,43
0,580	133,16
0,630	136,58
0,680	139,23
0,729	142,63
0,776	146,22
0,822	149,31
0,867	153,11
0,909	157,21
0,949	160,53
0,988	164,67
1,026	168,86
1,059	172,29
1,092	176,48
1,120	180,41
1,148	183,70
1,175	187,69
1,197	191,63
1,217	194,42
1,235	197,81
1,247	200,47
1,258	203,73
1,268	206,48
1,274	208,30
1,277	210,32
1,279	211,75
1,277	212,68
1,272	213,40
1,264	213,58
1,253	213,56
1,241	212,73
1,224	211,66
1,205	210,52
1,184	208,59
1,159	206,53
1,133	204,77
1,103	202,34
1,071	199,77
1,037	197,69
0,999	194,95
0,960	192,10
0,920	190,02
0,878	187,06
0,834	184,45
0,789	182,52
0,741	178,92
0,693	176,55
0,642	172,44
0,591	168,97
0,539	166,11
0,485	163,20
0,430	159,65
0,377	155,87
0,324	152,48
0,269	148,68
0,214	146,21
0,159	142,95
0,104	139,79
0,050	137,04
-0,003	134,05
-0,055	130,87
-0,105	128,78
-0,154	125,97
-0,203	123,30
-0,250	121,12
-0,294	118,79
-0,339	116,64
-0,382	114,49
-0,423	112,55
-0,460	110,91
-0,498	109,13
-0,533	107,41
-0,564	106,15
-0,594	104,54
-0,620	103,31
-0,646	102,27
-0,669	101,05
-0,690	100,16
-0,708	99,04
-0,724	98,15
-0,735	97,44
-0,743	96,69
-0,751	96,07
-0,756	95,56
-0,757	95,03
-0,757	94,61
-0,754	94,37
-0,749	94,19
-0,743	94,10
-0,732	93,97
-0,718	93,98
-0,701	94,05
-0,680	94,21
-0,658	94,44
-0,635	94,71
-0,608	95,13
-0,581	95,68
-0,551	96,14
-0,518	96,90
-0,482	97,63
-0,445	98,32
-0,404	99,22
-0,363	99,93
-0,320	100,96
-0,276	102,17
-0,231	103,04
-0,182	104,29
-0,134	105,69
-0,085	106,85
-0,035	108,45
0,016	110,13
0,068	111,56
0,123	113,48
0,176	115,10
0,231	117,25
0,283	119,60
0,335	121,46
0,388	124,00
0,440	126,45
0,493	128,55
0,545	130,51
0,597	134,20
0,649	136,55
0,697	139,85
0,746	143,44
0,792	146,72
0,837	150,34
0,881	154,03
0,922	157,90
0,963	161,75
1,001	165,45
1,037	170,09
1,071	174,22
1,103	177,07
1,133	181,62
1,159	185,41
1,183	188,82
1,205	192,37
1,224	196,07
1,238	198,68
1,252	201,85
1,261	205,04
1,271	206,92
1,275	209,35
1,279	211,03
1,279	212,06
1,275	213,12
1,269	213,63
1,261	213,70
1,249	213,21
1,235	212,57
1,217	211,35
1,197	209,73
1,175	208,19
1,150	206,09
1,122	203,73
1,092	201,85
1,059	199,34
1,024	196,66
0,986	194,50
0,947	191,50
0,906	188,68
0,864	186,17
0,818	183,03
0,773	180,09
0,724	177,59
0,675	175,52
0,625	171,71
0,572	168,47
0,520	165,75
0,468	162,09
0,416	158,65
0,361	155,48
0,305	152,54
0,248	148,71
0,192	144,96
0,137	142,62
0,083	138,96
0,033	136,14
-0,019	133,57
-0,071	130,59
-0,123	127,52
-0,171	125,50
-0,220	122,81
-0,267	120,25
-0,311	118,45
-0,355	115,91
-0,396	114,31
-0,435	112,16
-0,474	110,21
-0,511	108,81
-0,543	106,96
-0,576	105,20
-0,605	104,06
-0,631	102,82
-0,655	101,68
-0,677	100,75
-0,696	99,51
-0,713	98,57
-0,729	97,95
-0,740	97,11
-0,748	96,45
-0,754	95,89
-0,757	95,27
-0,757	94,91
-0,757	94,50
-0,754	94,19
-0,748	93,98
-0,738	93,82
-0,727	93,81
-0,712	93,87
-0,694	94,03
-0,674	94,21
-0,652	94,54
-0,627	94,92
-0,600	95,34
-0,570	95,89
-0,539	96,52
-0,504	97,09
-0,470	97,87
-0,432	98,61
-0,393	99,34
-0,350	100,37
-0,306	101,41
-0,261	102,31
-0,215	103,49
-0,167	104,49
-0,118	105,89
-0,069	107,43
-0,017	108,69
0,035	110,33
0,086	112,07
0,138	113,56
0,192	113,93
0,245	117,53
0,298	119,32
0,352	120,05
0,407	123,93
0,459	126,75
0,512	129,29
0,564	132,29
0,614	135,57
0,664	138,16
0,715	141,50
0,762	145,44
0,807	148,57
0,853	151,85
0,895	155,84
0,936	159,75
0,977	163,00
1,013	167,10
1,049	171,22
1,081	174,47
1,112	178,95
1,140	182,18
1,167	186,22
1,192	190,19
1,213	193,11
1,230	196,84
1,244	200,23
1,257	202,83
1,266	205,46
1,272	208,02
1,277	209,68
1,280	211,12
1,279	212,52
1,274	213,07
1,268	213,54
1,257	213,42
1,244	213,11
1,230	212,09
1,211	210,99
1,191	209,37
1,167	207,37
1,140	205,58
1,112	203,16
1,081	200,70
1,048	198,53
1,012	196,03
0,974	192,99
0,933	190,98
0,891	187,97
0,848	185,01
0,803	182,45
0,757	179,25
0,708	176,28
0,660	174,14
0,608	171,18
0,556	167,54
0,503	163,96
0,448	160,28
0,394	156,45
0,339	153,87
0,286	151,12
0,231	147,92
0,176	144,08
0,121	140,51
0,068	138,01
0,014	135,12
-0,038	132,21
-0,088	130,03
-0,138	126,72
-0,185	124,11
-0,232	122,32
-0,280	119,75
-0,324	117,33
-0,368	115,49
-0,410	113,30
-0,448	111,58
-0,485	109,72
-0,520	107,94
-0,553	106,56
-0,584	104,95
-0,613	103,44
-0,638	102,32
-0,661	101,04
-0,683	100,04
-0,702	99,34
-0,718	98,36
-0,730	97,71
-0,741	96,86
-0,749	96,24
-0,754	95,67
-0,757	95,23
-0,757	94,91
-0,756	94,58
-0,751	94,32
-0,745	94,14
-0,735	94,09
-0,723	94,09
-0,707	94,15
-0,688	94,30
-0,666	94,45
-0,644	94,71
-0,619	95,06
-0,591	95,55
-0,562	96,02
-0,529	96,69
-0,495	97,42
-0,457	98,06
-0,418	98,92
-0,377	99,84
-0,335	100,65
-0,292	101,79
-0,247	102,67
-0,199	103,92
-0,151	105,25
-0,102	106,37
-0,052	107,92
-0,002	109,54
0,050	111,01
0,105	112,89
0,157	114,89
0,210	116,57
0,264	118,67
0,316	120,18
0,369	121,78
0,423	124,47
0,476	127,74
0,529	130,73
0,581	133,73
0,631	136,06
0,682	139,12
0,729	142,88
0,776	146,29
0,822	150,05
0,867	153,62
0,908	156,81
0,949	160,93
0,988	165,16
1,024	168,28
1,060	172,62
1,092	175,85
1,123	180,01
1,150	184,18
1,175	187,28
1,197	191,21
1,217	194,80
1,235	197,86
1,247	200,89
1,258	204,04
1,268	206,29
1,274	208,49
1,279	210,51
1,279	211,78
1,277	212,93
1,272	213,42
1,264	213,69
1,253	213,55
1,241	212,73
1,224	211,86
1,205	210,41
1,183	208,49
1,158	206,88
1,131	204,65
1,103	202,70
1,070	200,11
1,035	197,57
0,999	195,45
0,961	192,40
0,920	189,58
0,878	187,27
0,834	184,12
0,789	181,38
0,741	178,59
0,691	175,42
0,641	172,05
0,591	169,32
0,539	165,91
0,487	162,54
0,434	159,94
0,379	155,87
0,322	152,19
0,265	149,55
0,209	145,97
0,154	143,39
0,102	140,45
0,050	137,30
-0,002	134,72
-0,053	131,81
-0,104	128,56
-0,154	126,60
-0,204	124,30
-0,251	121,23
-0,297	119,41
-0,341	116,67
-0,382	114,52
-0,423	112,74
-0,460	110,82
-0,498	109,43
-0,533	107,40
-0,565	105,59
-0,594	104,57
-0,622	103,11
-0,647	101,81
-0,669	100,88
-0,690	99,81
-0,707	98,64
-0,723	98,12
-0,735	97,35
-0,745	96,79
-0,751	96,01
-0,756	95,40
-0,757	95,06
-0,757	94,62
-0,754	94,27
-0,749	94,07
-0,743	93,84
-0,732	93,78
-0,718	93,79
-0,701	93,83
-0,680	93,98
-0,658	94,21
-0,636	94,55
-0,609	94,90
-0,581	95,49
-0,550	96,12
-0,517	96,68
-0,482	97,46
-0,445	98,32
-0,405	99,02
-0,364	100,01
-0,322	101,07
-0,276	101,94
-0,231	103,05
-0,184	103,91
-0,135	103,66
-0,085	106,16
-0,033	106,25
0,019	109,31
0,069	111,42
0,121	113,10
0,173	114,72
0,226	117,23
0,280	119,08
0,335	121,75
0,388	124,01
0,441	126,53
0,495	129,36
0,547	131,57
0,597	134,71
0,647	138,03
0,697	140,57
0,746	143,98
0,792	147,60
0,837	150,62
0,881	154,53
0,922	158,43
0,963	161,76
1,002	165,71
1,038	169,79
1,071	172,53
1,103	177,32
1,131	181,13
1,158	184,60
1,183	188,61
1,205	191,88
1,224	195,44
1,239	199,41
1,252	201,95
1,263	204,51
1,271	207,49
1,275	209,31
1,279	211,04
1,279	212,31
1,275	213,11
1,271	213,45
1,261	213,48
1,250	213,28
1,236	212,31
1,219	211,02
1,199	209,78
1,175	207,87
1,150	205,75
1,122	203,96
1,092	201,48
1,059	198,94
1,024	196,79
0,986	194,11
0,947	191,76
0,906	189,44
0,862	185,98
0,818	183,37
0,771	180,44
0,724	177,16
0,675	174,48
0,625	171,10
0,573	167,38
0,520	164,60
0,467	161,15
0,412	157,72
0,357	154,90
0,302	150,95
0,248	147,45
0,193	144,72
0,138	141,44
0,085	138,57
0,031	135,50
-0,020	132,62
-0,072	130,44
-0,123	127,25
-0,171	124,74
-0,218	122,59
-0,265	119,92
-0,311	117,70
-0,355	115,84
-0,396	113,58
-0,437	111,58
-0,474	110,13
-0,511	108,30
-0,543	106,95
-0,575	105,52
-0,603	104,06
-0,630	103,05
-0,653	101,85
-0,675	100,92
-0,696	100,15
-0,713	98,95
-0,727	97,98
-0,738	97,28
-0,746	96,54
-0,752	96,02
-0,756	95,55
-0,757	95,02
-0,756	94,48
-0,752	94,12
-0,746	94,01
-0,738	93,88
-0,727	93,89
-0,712	93,91
-0,694	93,93
-0,672	94,15
-0,650	94,54
-0,625	94,80
-0,598	95,22
-0,570	95,62
-0,539	96,20
-0,506	96,88
-0,468	97,52
-0,430	98,36
-0,390	99,23
-0,347	100,03
-0,305	101,07
-0,259	102,29
-0,214	103,25
-0,165	104,57
-0,118	105,66
-0,068	107,13
-0,017	107,84
0,035	108,94
0,088	111,51
0,141	113,76
0,195	115,66
0,248	117,38
0,300	120,01
0,353	121,75
0,407	125,08
0,462	127,42
0,514	129,89
0,565	132,46
0,617	135,31
0,666	138,89
0,715	142,24
0,763	145,09
0,809	148,55
0,855	152,36
0,897	155,58
0,938	159,58
0,977	163,52
1,015	166,68
1,051	170,75
1,084	174,84
1,115	178,33
1,144	182,51
1,169	186,61
1,192	189,65
1,213	193,38
1,230	196,30
1,244	199,63
1,257	202,77
1,266	205,12
1,274	207,79
1,277	209,72
1,279	211,19
1,279	212,52
1,274	213,27
1,268	213,65
1,258	213,59
1,246	212,96
1,230	212,10
1,211	210,71
1,189	208,87
1,166	207,30
1,139	205,02
1,111	202,64
1,081	200,66
1,046	198,14
1,012	195,38
0,972	193,13
0,933	190,28
0,891	187,37
0,847	185,04
0,801	182,23
0,754	180,23
0,705	176,07
0,657	172,79
0,605	170,12
0,554	166,62
0,501	162,94
0,449	160,14
0,393	156,29
0,336	152,62
0,281	149,87
0,225	146,54
0,171	143,01
0,118	140,43
0,066	137,35
0,014	134,31
-0,039	131,76
-0,091	129,16
-0,141	127,10
-0,192	124,31
-0,239	121,48
-0,284	119,70
-0,328	117,09
-0,371	115,00
-0,412	113,30
-0,451	110,85
-0,489	109,29
-0,523	107,78
-0,556	106,04
-0,587	104,75
-0,614	103,39
-0,641	102,06
-0,663	101,18
-0,683	99,99
-0,702	99,03
-0,718	98,22
-0,730	97,35
-0,741	96,61
-0,749	96,17
-0,754	95,45
-0,757	95,10
-0,757	94,68
-0,756	94,42
-0,751	94,19
-0,745	94,07
-0,734	94,00
-0,721	93,99
-0,705	94,04
-0,686	94,23
-0,666	94,41
-0,642	94,66
-0,617	95,03
-0,589	95,36
-0,559	95,90
-0,526	96,40
-0,492	97,11
-0,456	97,84
-0,416	98,44
-0,375	99,16
-0,333	99,51
-0,289	101,18
-0,243	102,26
-0,196	103,88
-0,148	104,98
-0,099	106,37
-0,049	107,26
0,003	109,37
0,055	111,45
0,105	112,93
0,157	114,93
0,210	116,96
0,265	118,71
0,320	121,05
0,374	123,71
0,427	125,62
0,481	128,15
0,533	130,50
0,583	133,52
0,633	136,72
0,683	139,30
0,732	142,82
0,778	146,33
0,825	149,39
0,869	153,25
0,911	157,14
0,952	160,58
0,991	164,47
1,027	168,78
1,060	172,02
1,093	176,20
1,123	180,46
1,151	183,68
