#Absolutdruck 1 vs Winkelposition, Messreihe #2
#Winkelposition ( rad )	Absolutdruck 1 ( kPa )
1,638	191,96
1,605	189,88
1,568	187,35
1,527	185,44
1,486	183,10
1,442	180,58
1,400	178,48
1,357	175,70
1,313	173,04
1,269	170,76
1,222	167,54
1,177	164,00
1,128	160,91
1,081	156,71
1,032	152,71
0,985	150,03
0,936	147,05
0,888	144,37
0,840	142,51
0,793	140,30
0,746	138,55
0,699	136,34
0,653	133,42
0,608	130,95
0,562	128,01
0,518	125,23
0,476	123,67
0,434	122,12
0,393	120,62
0,355	119,54
0,317	117,93
0,280	116,17
0,245	114,43
0,212	112,40
0,181	111,22
0,151	109,55
0,123	108,25
0,096	107,14
0,071	106,06
0,049	104,82
0,028	103,70
0,009	102,27
-0,006	101,14
-0,022	100,44
-0,035	99,52
-0,044	98,92
-0,052	98,16
-0,058	97,69
-0,063	97,31
-0,064	96,90
-0,064	96,52
-0,063	96,18
-0,060	95,88
-0,053	95,62
-0,046	95,43
-0,035	95,29
-0,020	95,15
-0,005	95,08
0,013	95,08
0,033	95,27
0,053	95,41
0,074	95,73
0,097	96,02
0,126	96,50
0,154	97,04
0,185	97,55
0,217	98,30
0,250	98,94
0,284	99,77
0,320	100,66
0,358	101,40
0,399	102,35
0,440	103,41
0,481	104,30
0,525	105,59
0,567	106,78
0,613	107,88
0,658	109,16
0,704	110,30
0,752	111,83
0,800	113,72
0,847	115,58
0,894	117,20
0,942	119,05
0,990	120,64
1,038	122,44
1,087	124,25
1,134	125,96
1,181	128,49
1,227	130,84
1,272	134,47
1,318	138,43
1,363	141,84
1,407	144,79
1,450	147,42
1,491	149,18
1,532	151,54
1,569	154,22
1,607	156,48
1,643	159,81
1,679	163,90
1,711	167,68
1,742	171,73
1,772	175,68
1,799	179,02
1,824	182,61
1,847	185,96
1,868	188,64
1,887	192,12
1,904	194,98
1,920	198,23
1,932	200,87
1,943	202,90
1,953	205,25
1,959	207,30
1,963	208,83
1,965	210,58
1,967	211,96
1,965	212,71
1,960	213,42
1,954	213,59
1,945	213,42
1,935	212,88
1,921	211,82
1,907	210,94
1,890	209,60
1,871	208,15
1,850	206,81
1,827	205,04
1,802	203,12
1,773	201,50
1,745	199,33
1,714	197,52
1,682	195,10
1,649	192,81
1,615	190,90
1,577	188,46
1,536	185,97
1,495	183,98
1,455	181,47
1,412	178,78
1,368	176,62
1,324	173,82
1,280	170,88
1,235	168,63
1,188	165,75
1,140	162,86
1,092	160,33
1,045	156,80
0,996	152,75
0,947	149,23
0,900	145,22
0,851	141,83
0,804	139,59
0,757	137,26
0,710	134,91
0,664	133,01
0,619	130,91
0,573	128,86
0,531	126,86
0,487	124,57
0,445	122,58
0,404	120,81
0,364	118,57
0,327	117,00
0,289	114,95
0,253	113,20
0,220	111,02
0,188	109,18
0,159	107,94
0,129	106,67
0,102	106,11
0,077	105,67
0,053	104,85
0,033	104,10
0,014	103,39
-0,003	102,41
-0,017	101,38
-0,031	100,52
-0,041	99,49
-0,050	98,78
-0,057	98,02
-0,061	97,35
-0,064	96,89
-0,064	96,49
-0,063	96,08
-0,060	95,88
-0,053	95,60
-0,046	95,36
-0,036	95,27
-0,025	95,25
-0,011	95,22
0,008	95,26
0,027	95,37
0,049	95,58
0,069	95,86
0,093	96,22
0,118	96,66
0,146	97,19
0,178	97,87
0,209	98,46
0,242	99,26
0,276	99,94
0,311	100,91
0,349	101,78
0,388	102,54
0,427	103,53
0,470	104,54
0,512	105,33
0,556	106,36
0,600	107,50
0,646	108,46
0,691	109,79
0,738	111,15
0,787	113,28
0,834	115,96
0,883	118,27
0,930	121,50
0,977	123,11
1,026	124,46
1,074	126,06
1,122	127,34
1,169	128,39
1,216	130,41
1,261	132,58
1,307	136,29
1,352	140,81
1,396	144,53
1,439	148,94
1,481	152,54
1,521	155,07
1,560	157,75
1,599	159,81
1,635	161,83
1,670	164,94
1,703	169,35
1,734	172,84
1,762	176,26
1,791	179,25
1,817	181,59
1,841	184,37
1,865	187,31
1,883	189,82
1,901	193,06
1,916	195,76
1,929	199,20
1,942	202,41
1,949	204,72
1,957	207,37
1,962	209,53
1,965	210,84
1,967	212,22
1,967	213,07
1,962	213,47
1,957	213,52
1,948	213,35
1,938	212,90
1,926	212,26
1,910	211,23
1,893	210,25
1,876	209,00
1,855	207,40
1,833	206,00
1,808	204,14
1,781	202,43
1,751	200,27
1,722	198,27
1,692	196,34
1,659	194,17
1,623	191,70
1,585	189,82
1,546	187,29
1,505	184,82
1,466	182,62
1,423	179,71
1,381	176,56
1,337	173,98
1,291	170,62
1,246	167,01
1,200	164,34
1,153	161,63
1,104	159,20
1,057	157,30
1,008	154,88
0,961	152,12
0,913	149,62
0,866	146,07
0,817	142,95
0,770	138,83
0,723	135,17
0,677	132,67
0,631	130,02
0,586	127,73
0,542	126,16
0,498	124,06
0,456	122,03
0,415	120,35
0,375	118,25
0,336	116,18
0,300	114,98
0,262	113,27
0,229	112,33
0,196	110,80
0,167	109,25
0,138	107,89
0,110	106,75
0,085	104,82
0,061	103,92
0,039	102,94
0,019	102,24
0,002	101,51
-0,014	100,66
-0,028	100,15
-0,038	99,28
-0,047	98,50
-0,055	97,89
-0,060	97,54
-0,064	96,97
-0,064	96,36
-0,064	95,91
-0,061	95,69
-0,057	95,58
-0,049	95,38
-0,041	95,22
-0,028	95,22
-0,014	95,40
0,003	95,62
0,020	95,87
0,041	96,20
0,061	96,48
0,085	96,85
0,112	97,18
0,140	97,46
0,168	97,88
0,199	98,27
0,232	98,87
0,265	99,45
0,302	100,27
0,339	101,14
0,377	102,06
0,416	102,91
0,457	104,36
0,501	105,65
0,545	106,73
0,589	108,57
0,633	110,07
0,680	111,55
0,726	113,26
0,773	114,74
0,820	116,50
0,869	117,87
0,917	119,04
0,964	120,50
1,013	121,96
1,062	123,28
1,109	125,12
1,156	127,19
1,203	129,00
1,249	131,99
1,296	135,13
1,341	139,45
1,385	144,26
1,429	147,78
1,470	151,36
1,511	154,18
1,549	156,48
1,588	159,05
1,624	161,31
1,660	163,09
1,693	165,55
1,725	168,46
1,756	170,98
1,784	174,43
1,811	178,19
1,836	181,75
1,858	186,56
1,877	189,83
1,896	193,97
1,912	197,36
1,924	199,76
1,937	202,31
1,946	204,62
1,956	206,28
1,962	208,14
1,965	209,72
1,967	210,81
1,965	212,10
1,962	212,87
1,957	213,30
1,949	213,49
1,940	213,33
1,929	213,00
1,916	212,09
1,901	210,88
1,882	209,64
1,861	207,96
1,838	206,06
1,814	204,47
1,788	202,31
1,759	200,75
1,729	198,55
1,701	196,33
1,668	194,53
1,635	192,25
1,598	189,69
1,558	187,32
1,517	184,18
1,475	181,47
1,433	179,46
1,390	177,06
1,348	174,64
1,304	172,69
1,260	169,84
1,213	166,94
1,166	164,44
1,118	160,97
1,070	157,20
1,023	154,06
0,974	150,03
0,927	146,98
0,878	143,61
0,831	140,66
0,784	138,57
0,735	136,09
0,690	133,68
0,642	132,09
0,597	130,35
0,553	128,58
0,511	127,07
0,467	124,51
0,426	121,75
0,386	119,51
0,347	117,37
0,309	115,15
0,273	113,43
0,239	111,59
0,206	110,36
0,173	108,88
0,145	107,82
0,116	107,02
0,091	105,98
0,066	105,21
0,044	104,57
0,024	103,60
0,005	102,64
-0,011	101,89
-0,025	100,97
-0,036	100,29
-0,046	99,35
-0,053	98,50
-0,060	98,01
-0,063	97,32
-0,064	96,69
-0,064	96,37
-0,061	96,15
-0,058	95,87
-0,052	95,69
-0,042	95,50
-0,031	95,52
-0,019	95,55
-0,003	95,63
0,016	95,66
0,036	95,86
0,058	96,06
0,080	96,38
0,104	96,76
0,130	97,25
0,159	97,74
0,190	98,45
0,223	99,16
0,258	99,85
0,292	100,66
0,330	101,36
0,368	102,17
0,407	102,91
0,448	103,54
0,489	104,39
0,533	105,34
0,576	106,22
0,622	107,43
0,668	108,62
0,713	110,49
0,760	112,91
0,809	114,85
0,856	117,74
0,903	119,60
0,952	121,09
1,001	123,17
1,049	124,56
1,096	126,38
1,144	129,04
1,191	130,89
1,236	133,08
1,283	135,05
1,329	136,66
1,373	139,04
1,415	142,31
1,458	145,87
1,499	150,87
1,539	156,25
1,579	159,85
1,615	163,66
1,651	166,62
1,684	168,73
1,717	171,24
1,747	173,78
1,775	175,80
1,802	178,67
1,828	180,98
1,852	184,04
1,872	187,46
1,891	190,23
1,909	193,96
1,923	197,68
1,935	200,37
1,945	203,35
1,953	206,22
1,959	208,11
1,963	210,06
1,967	211,64
1,967	212,50
1,965	213,19
1,960	213,38
1,953	213,33
1,943	212,90
1,932	212,30
1,918	211,60
1,902	210,60
1,885	209,28
1,866	208,16
1,846	206,54
1,822	205,10
1,797	203,16
1,769	201,10
1,737	199,32
1,707	197,12
1,676	194,94
1,643	193,18
1,607	190,73
1,571	188,30
1,530	186,25
1,489	183,70
1,447	181,04
1,403	178,98
1,359	176,19
1,315	173,31
1,271	170,96
1,225	167,76
1,180	164,76
1,133	162,20
1,084	158,86
1,035	156,22
0,988	153,13
0,939	150,11
0,891	147,73
0,842	144,59
0,795	141,72
0,748	139,69
0,702	137,30
0,657	134,95
0,611	132,75
0,565	130,26
0,522	127,70
0,478	125,74
0,437	123,38
0,396	120,96
0,358	119,34
0,320	117,46
0,284	116,08
0,248	114,41
0,215	112,54
0,182	110,71
0,152	108,58
0,124	106,30
0,097	104,65
0,074	103,18
0,050	102,12
0,030	101,27
0,011	100,78
-0,006	100,32
-0,020	99,89
-0,033	99,31
-0,042	98,85
-0,052	98,20
-0,057	97,58
-0,061	97,08
-0,064	96,51
-0,064	96,03
-0,063	95,86
-0,058	95,62
-0,053	95,45
-0,046	95,35
-0,035	95,26
-0,022	95,28
-0,006	95,35
0,013	95,44
0,031	95,55
0,052	95,73
0,074	95,90
0,097	96,13
0,124	96,45
0,152	96,84
0,184	97,46
0,215	98,11
0,248	98,84
0,283	99,93
0,319	101,04
0,357	102,09
0,396	103,50
0,437	104,93
0,478	106,08
0,520	107,45
0,564	108,82
0,608	109,85
0,655	111,12
0,701	112,23
0,748	113,53
0,795	115,04
0,842	116,02
0,891	117,83
0,938	119,20
0,986	120,37
1,035	122,36
1,084	124,44
1,131	126,47
1,178	128,35
1,224	130,38
1,271	132,82
1,315	136,39
1,360	139,63
1,404	143,97
1,447	147,45
1,489	149,54
1,528	152,17
1,568	154,74
1,604	157,20
1,640	160,41
1,674	163,46
1,707	166,19
1,739	169,56
1,769	173,11
1,797	176,14
1,822	180,06
1,846	184,05
1,866	187,13
1,887	190,97
1,902	193,92
1,918	197,43
1,931	200,63
1,942	202,88
1,951	205,45
1,959	207,72
1,963	209,30
1,967	210,85
1,967	212,10
1,965	212,80
1,962	213,30
1,956	213,49
1,946	213,44
1,935	212,90
1,923	212,13
1,909	211,22
1,891	209,92
1,872	208,46
1,852	207,12
1,828	205,15
1,803	203,13
1,777	201,43
1,747	199,17
1,718	197,40
1,687	195,16
1,652	192,90
1,616	191,06
1,579	188,71
1,538	186,22
1,497	184,30
1,456	181,64
1,415	178,88
1,373	176,73
1,329	173,86
1,283	170,94
1,238	168,51
1,191	164,70
1,144	160,56
1,096	157,17
1,048	153,42
1,001	150,35
0,952	148,14
0,905	145,81
0,856	143,29
0,807	141,45
0,760	138,65
0,713	136,33
0,668	133,33
0,622	130,52
0,578	128,27
0,534	125,74
0,490	123,66
0,448	121,76
0,407	119,94
0,368	117,88
0,330	116,11
0,292	114,06
0,256	112,30
0,223	111,36
0,192	109,55
0,160	108,51
0,132	107,21
0,105	105,87
0,080	105,31
0,057	104,00
0,036	103,09
0,016	102,40
-0,002	101,56
-0,017	100,69
-0,030	99,97
-0,039	99,09
-0,049	98,67
-0,055	98,14
-0,061	97,48
-0,064	97,06
-0,064	96,59
-0,064	96,36
-0,060	96,15
-0,055	95,88
-0,047	95,60
-0,038	95,46
-0,025	95,39
-0,011	95,36
0,006	95,37
0,025	95,43
0,044	95,53
0,066	95,78
0,090	96,07
0,115	96,40
0,143	96,86
0,173	97,39
0,206	97,87
0,237	98,57
0,272	99,35
0,308	100,13
0,346	101,20
0,385	102,18
0,424	103,59
0,465	104,95
0,507	105,76
0,551	107,03
0,595	108,51
0,641	109,70
0,686	110,97
0,735	112,67
0,782	114,47
0,829	116,72
0,877	118,58
0,925	120,98
0,972	123,28
1,021	124,88
1,070	126,90
1,117	128,91
1,164	130,64
1,211	133,01
1,257	135,09
1,302	137,72
1,348	140,88
1,392	143,25
1,434	146,63
1,477	150,28
1,516	153,40
1,555	156,88
1,594	159,52
1,630	161,44
1,667	163,52
1,700	165,75
1,731	167,86
1,761	171,00
1,789	174,41
1,816	177,39
1,839	181,54
1,861	185,96
1,882	189,61
1,899	193,48
1,915	197,19
1,927	199,84
1,940	202,78
1,949	205,29
1,957	206,97
1,962	208,93
1,965	210,32
1,967	211,48
1,965	212,41
1,962	212,88
1,956	213,12
1,948	213,04
1,938	212,77
1,926	212,16
1,912	211,25
1,896	210,38
1,879	208,97
1,858	207,37
1,836	205,95
1,811	204,05
1,783	201,96
1,755	200,25
1,726	198,08
1,695	195,88
1,663	194,02
1,627	191,59
1,590	189,49
1,550	186,76
1,510	184,17
1,469	182,07
1,428	179,39
1,385	176,73
1,341	174,64
1,297	171,99
1,252	169,34
1,205	167,04
1,158	163,82
1,109	160,16
1,062	156,86
1,015	152,55
0,966	148,78
0,919	146,06
0,870	143,01
0,822	140,68
0,774	138,60
0,727	136,45
0,682	134,26
0,636	132,22
0,591	129,64
0,547	127,27
0,503	124,69
0,460	122,89
0,419	120,84
0,380	119,04
0,341	116,95
0,303	115,25
0,267	113,67
0,232	111,88
0,199	110,52
0,170	109,06
0,141	108,30
0,113	106,94
0,088	105,61
0,063	104,56
0,041	103,42
0,020	102,51
0,002	101,43
-0,014	100,85
-0,027	100,18
-0,038	99,53
-0,047	98,60
-0,053	98,10
-0,060	97,74
-0,064	97,38
-0,066	96,97
-0,064	96,48
-0,061	96,09
-0,057	95,92
-0,050	95,74
-0,041	95,60
-0,030	95,51
-0,016	95,46
0,002	95,45
0,019	95,56
0,038	95,74
0,058	95,93
0,082	96,30
0,107	96,67
0,135	97,02
0,165	97,54
0,196	98,11
0,229	98,61
0,262	99,44
0,298	100,14
0,335	101,19
0,372	102,48
0,412	103,51
0,452	104,68
0,495	105,67
0,539	106,67
0,584	108,05
0,628	109,34
0,674	110,32
0,721	112,25
0,768	113,75
0,815	115,93
0,864	118,26
0,911	120,18
0,960	122,57
1,008	124,66
1,057	126,18
1,104	128,10
1,151	130,12
1,197	131,93
1,244	134,47
1,290	136,20
1,335	139,28
1,381	142,50
1,423	145,33
1,466	149,30
1,506	153,07
1,546	155,84
1,583	158,34
1,621	160,51
1,656	162,18
1,689	164,67
1,722	167,45
1,751	169,97
1,781	173,39
1,808	177,24
1,832	180,47
1,855	184,59
1,876	188,88
1,894	192,13
1,910	195,92
1,924	199,21
1,937	201,71
1,946	204,35
1,954	206,42
1,960	208,37
1,965	209,98
1,967	210,92
1,967	211,89
1,963	212,54
1,957	212,86
1,951	212,97
1,942	212,90
1,929	212,57
1,916	211,85
1,901	210,79
1,883	209,68
1,865	207,96
1,843	205,93
1,817	204,27
1,791	202,03
1,762	199,83
1,734	198,09
1,704	195,76
1,673	194,06
1,638	191,91
1,601	189,67
1,561	187,85
1,522	185,39
1,481	182,92
1,439	180,79
1,396	178,09
1,354	175,35
1,310	173,11
1,264	170,19
1,217	167,17
1,170	164,35
1,123	160,49
1,076	156,34
1,027	153,14
0,980	149,46
0,931	146,31
0,884	144,08
0,836	141,65
0,789	139,75
0,741	137,11
0,694	134,41
0,649	132,11
0,603	129,36
0,558	126,68
0,514	124,74
0,471	122,39
0,429	120,87
0,390	119,20
0,350	118,12
0,313	116,78
0,276	115,12
0,242	112,97
0,209	111,32
0,178	109,13
0,148	107,16
0,119	105,82
0,094	104,93
0,071	103,95
0,047	103,34
0,027	102,78
0,008	102,22
-0,009	101,62
-0,024	101,05
-0,036	100,60
-0,046	99,84
-0,052	99,11
-0,058	98,56
-0,063	97,89
-0,064	97,34
-0,064	96,96
-0,061	96,46
-0,058	96,02
-0,052	95,81
-0,044	95,68
-0,033	95,59
-0,020	95,55
-0,003	95,50
0,014	95,53
0,033	95,66
0,055	95,86
0,075	95,98
0,101	96,25
0,127	96,68
0,157	97,01
0,188	97,53
0,220	98,06
0,253	98,74
0,287	99,71
0,325	100,44
0,363	101,43
0,402	102,46
0,443	103,31
0,484	104,48
0,528	105,89
0,572	107,15
0,616	108,89
0,661	110,32
0,708	112,23
0,756	114,28
0,803	115,95
0,850	117,47
0,898	118,90
0,946	120,07
0,994	121,26
1,043	122,62
1,090	124,15
1,137	126,66
1,184	130,12
1,232	133,19
1,277	137,37
1,323	140,71
1,367	144,59
1,411	147,67
1,453	149,62
1,494	151,76
1,535	154,05
1,574	155,84
1,612	158,01
1,646	160,57
1,681	163,00
1,712	166,24
1,744	170,12
1,772	173,27
1,800	177,28
1,825	181,37
1,849	184,41
1,871	188,43
1,890	192,57
1,907	195,88
1,921	199,65
1,932	202,20
1,943	203,90
1,953	205,78
1,959	207,56
1,963	208,78
1,967	210,33
1,967	211,42
1,963	212,41
1,960	213,14
1,954	213,44
1,945	213,43
1,934	212,95
1,921	212,37
1,905	211,16
1,888	209,73
1,869	208,50
1,849	206,67
1,824	204,83
1,799	203,13
1,770	201,20
1,742	199,17
1,712	197,42
1,681	195,12
1,648	192,88
1,612	190,84
1,574	188,23
1,533	186,00
1,492	182,61
1,450	178,98
1,407	176,23
1,365	173,59
1,321	171,50
1,275	169,81
1,230	167,84
1,184	165,48
1,136	163,33
1,089	160,13
1,040	156,15
0,993	152,38
0,944	147,53
0,897	143,41
0,848	140,84
0,801	138,60
0,754	136,72
0,708	135,58
0,661	133,87
0,616	132,25
0,570	129,64
0,526	126,67
0,482	124,21
0,441	121,51
0,401	119,05
0,361	117,37
0,324	115,49
0,286	114,34
0,251	113,32
0,218	112,21
0,187	111,12
0,156	109,87
0,127	108,56
0,101	107,42
0,075	105,92
0,052	104,67
0,031	103,72
0,013	102,48
-0,005	101,70
-0,020	101,05
-0,033	100,16
-0,042	99,44
-0,050	98,89
-0,057	98,36
-0,061	97,94
-0,064	97,38
-0,064	96,84
-0,063	96,49
-0,060	96,08
-0,053	95,79
-0,046	95,56
-0,036	95,36
-0,024	95,23
-0,008	95,20
0,009	95,18
0,028	95,27
0,049	95,48
0,071	95,77
0,094	96,08
0,121	96,50
0,149	97,13
0,179	97,60
0,210	98,29
0,243	98,91
0,278	99,73
0,314	100,61
0,352	101,43
0,391	102,44
0,430	103,47
0,473	104,37
0,515	105,78
0,559	107,14
0,603	108,14
0,649	109,28
0,696	110,41
0,743	111,78
0,790	113,13
0,837	114,37
0,884	116,42
0,933	119,16
0,980	121,49
1,029	124,63
1,078	127,72
1,125	130,02
1,172	132,53
1,217	134,39
1,264	136,59
1,310	138,83
1,356	140,44
1,400	142,91
1,442	145,68
1,483	148,12
1,524	151,86
1,561	155,40
1,601	157,86
1,637	160,69
1,671	163,61
1,704	166,01
1,736	169,23
1,766	172,69
1,794	175,81
1,819	179,76
1,843	183,67
1,865	186,83
1,885	190,79
1,902	194,39
1,918	197,16
1,931	200,27
1,942	202,61
1,949	205,32
1,957	207,77
1,963	209,28
1,967	210,46
1,967	211,05
1,967	211,19
1,962	211,58
1,956	212,06
1,948	212,24
1,937	212,15
1,924	211,60
1,909	210,74
1,893	209,53
1,874	208,20
1,854	206,94
1,832	205,26
1,805	203,44
1,778	201,93
1,750	199,91
1,720	197,77
1,690	195,93
1,657	193,56
1,623	191,14
1,585	189,14
1,544	186,49
1,503	184,44
1,462	181,63
1,420	178,67
1,378	176,41
1,334	173,63
1,288	170,92
1,243	168,76
1,197	165,99
1,150	162,76
1,103	159,62
1,054	155,45
1,007	151,07
0,958	148,16
0,911	144,75
0,862	142,20
0,814	140,43
0,767	138,12
0,719	136,09
0,674	133,74
0,628	131,23
0,583	128,75
0,539	126,71
0,495	123,80
0,452	122,30
0,412	120,39
0,372	118,62
0,335	117,07
0,298	115,08
0,262	113,16
0,228	111,51
0,195	110,11
0,165	108,31
0,135	107,43
0,108	106,18
0,083	105,46
0,060	104,44
0,038	103,49
0,019	102,93
0,000	101,96
-0,016	100,98
-0,028	100,38
-0,039	99,65
-0,049	98,80
-0,055	98,19
-0,061	97,52
-0,064	97,18
-0,064	96,77
-0,064	96,39
-0,061	96,14
-0,057	95,91
-0,049	95,71
-0,041	95,62
-0,028	95,53
-0,014	95,48
0,003	95,46
0,022	95,55
0,042	95,65
0,064	95,86
0,086	96,14
0,113	96,38
0,140	96,79
0,170	97,26
0,201	97,78
0,234	98,49
0,269	99,40
0,303	100,19
0,341	101,22
0,380	102,05
0,419	103,16
0,460	104,41
0,503	105,49
0,547	106,89
0,591	108,53
0,636	109,94
0,682	111,70
0,729	113,69
0,776	115,10
0,823	116,89
0,870	118,44
0,919	119,63
0,968	120,96
1,016	122,16
1,063	123,55
1,112	125,14
1,159	126,68
1,205	129,31
1,252	133,06
1,297	136,52
1,343	141,37
1,387	145,73
1,429	148,48
1,472	151,30
1,513	153,33
1,552	155,79
1,590	158,83
1,626	161,75
1,662	164,86
1,695	167,67
1,728	169,82
1,758	172,71
1,786	175,98
1,811	179,05
1,836	183,37
1,858	187,26
1,879	190,03
1,896	193,39
1,912	196,79
1,926	199,57
1,937	202,77
1,946	205,58
1,956	207,17
1,962	208,51
1,965	209,57
1,967	210,38
1,967	211,54
1,963	212,28
1,957	213,05
1,949	213,36
1,940	213,34
1,927	212,93
1,913	212,06
1,898	210,98
1,880	209,28
1,860	207,49
1,838	205,68
1,814	203,34
1,788	201,07
1,758	199,34
1,729	197,50
1,698	195,72
1,667	194,11
1,634	191,94
1,596	189,69
1,557	187,67
1,516	185,15
1,473	182,46
1,431	180,37
1,390	177,61
1,346	175,40
1,302	172,60
1,258	169,87
1,211	167,52
1,164	164,66
1,115	161,48
1,068	158,76
1,021	155,21
0,972	151,22
0,925	148,09
0,877	144,79
0,829	142,12
0,782	140,37
0,734	138,26
0,688	136,19
0,641	134,39
0,597	131,77
0,553	128,48
0,509	125,97
0,467	122,64
0,424	120,29
0,385	117,74
0,346	115,63
0,308	114,14
0,272	112,93
0,237	111,60
0,204	111,03
0,173	109,93
0,143	108,81
0,116	107,48
0,090	105,82
0,066	104,52
0,044	103,01
0,024	101,63
0,005	100,67
-0,011	99,77
-0,025	99,16
-0,038	99,01
-0,046	98,75
-0,053	98,36
-0,058	98,08
-0,063	97,79
-0,064	97,55
-0,064	97,26
-0,063	96,85
-0,058	96,47
-0,052	95,96
-0,042	95,72
-0,031	95,60
-0,017	95,35
-0,002	95,27
0,017	95,22
0,036	95,26
0,057	95,43
0,079	95,72
0,104	96,17
0,130	96,52
0,160	97,15
0,192	97,79
0,225	98,41
0,258	99,23
0,294	99,96
0,330	100,78
0,368	101,79
0,407	102,66
0,448	103,82
0,490	105,31
0,534	106,56
0,578	108,02
0,622	109,80
0,668	111,12
0,715	112,40
0,762	113,61
0,809	114,85
0,856	116,36
0,905	117,45
0,952	119,91
1,001	122,40
1,049	124,81
1,098	127,90
1,144	131,21
1,191	133,75
1,236	136,55
1,283	138,50
1,329	139,89
1,373	141,31
1,417	142,90
1,459	144,36
1,500	146,55
1,539	148,75
1,577	151,78
1,615	155,13
1,651	158,11
1,685	162,00
1,717	166,04
1,748	169,42
1,777	174,03
1,803	179,33
1,828	183,71
1,852	189,53
1,872	193,51
1,891	195,33
1,909	196,98
1,923	198,48
1,934	199,82
1,945	201,70
1,953	203,90
1,960	205,90
1,963	208,30
1,967	210,26
1,967	212,09
1,965	213,43
1,959	214,16
1,951	214,17
1,943	213,63
1,932	213,05
1,918	211,73
1,904	210,23
1,887	208,97
1,868	207,30
1,846	205,53
1,822	204,02
1,795	202,04
1,767	199,78
1,739	197,90
1,709	195,33
1,678	192,92
1,643	191,16
1,607	189,32
1,568	187,93
1,528	186,03
1,488	183,71
1,447	181,68
1,404	178,93
1,360	176,11
1,316	173,80
1,271	170,87
1,225	168,06
1,178	165,60
1,131	162,72
1,084	159,76
1,035	157,45
0,988	154,59
0,939	151,73
0,891	149,26
0,842	145,91
0,795	141,89
0,748	139,30
0,701	136,07
0,655	133,46
0,609	131,92
0,565	129,88
0,522	128,44
0,479	126,15
0,437	124,10
0,396	122,65
0,357	120,36
0,319	118,60
0,283	117,14
0,248	115,26
0,215	113,53
0,182	112,21
0,152	110,32
0,124	108,50
0,097	106,38
0,072	105,41
0,050	104,43
0,030	103,08
0,011	102,11
-0,006	101,61
-0,020	101,07
-0,033	100,32
-0,044	99,66
-0,052	98,93
-0,058	98,42
-0,063	97,85
-0,064	97,30
-0,064	96,90
-0,063	96,45
-0,058	96,00
-0,052	95,67
-0,044	95,37
-0,035	95,17
-0,022	95,11
-0,006	95,06
0,011	95,16
0,030	95,34
0,050	95,59
0,072	95,86
0,097	96,18
0,124	96,63
0,152	97,09
0,182	97,63
0,214	98,27
0,247	98,89
0,281	99,67
0,319	100,52
0,357	101,19
0,394	102,08
0,435	102,91
0,478	103,89
0,520	105,02
0,564	106,08
0,608	107,57
0,653	109,38
0,699	110,94
0,748	112,79
0,795	114,52
0,844	116,19
0,891	117,53
0,938	118,64
0,986	120,25
1,034	121,92
1,082	123,19
1,129	125,32
1,178	128,09
1,224	130,62
1,271	134,85
1,315	137,99
1,360	140,32
1,404	142,66
1,447	145,00
1,488	146,91
1,528	149,40
1,566	151,62
1,604	154,66
1,640	158,15
1,674	161,07
1,707	165,07
1,739	169,84
1,769	173,84
1,795	178,19
1,821	182,34
1,844	185,36
1,866	188,70
1,885	191,81
1,904	194,21
1,918	197,19
1,932	200,04
1,943	202,27
1,951	204,80
1,959	207,28
1,963	208,93
1,965	210,80
1,967	212,13
1,965	212,88
1,960	213,33
1,956	213,40
1,946	213,17
1,935	212,65
1,923	212,06
1,909	210,99
1,893	209,75
1,872	208,64
1,852	207,01
1,828	205,18
1,803	203,64
1,777	201,62
1,747	199,54
1,717	197,77
1,687	195,52
1,654	193,18
1,618	191,23
1,580	188,79
1,539	186,77
1,499	184,26
1,458	181,64
1,415	179,41
1,373	176,44
1,329	173,26
1,285	170,40
1,239	166,84
1,192	163,11
1,145	160,28
1,098	156,98
1,049	154,01
1,002	151,82
0,953	149,26
0,906	146,93
0,858	145,06
0,809	142,40
0,762	139,15
0,715	136,72
0,669	133,45
0,624	130,14
0,580	127,73
0,536	125,16
0,492	123,38
0,449	121,39
0,408	120,08
0,369	119,18
0,330	117,82
0,294	116,21
0,258	115,11
0,225	113,30
0,192	111,50
0,162	110,05
0,132	108,41
0,105	106,82
0,080	105,30
0,057	104,17
0,036	102,95
0,016	102,17
-0,002	101,36
-0,017	100,68
-0,030	99,89
-0,041	99,27
-0,049	98,78
-0,055	98,17
-0,060	97,66
-0,063	97,08
-0,064	96,60
-0,064	96,21
-0,061	95,74
-0,055	95,34
-0,047	95,11
-0,038	94,90
-0,025	94,80
-0,011	94,82
0,005	95,03
0,024	95,23
0,044	95,60
0,066	95,99
0,088	96,32
0,115	96,86
0,143	97,39
0,173	97,82
0,204	98,37
0,237	98,96
0,272	99,47
0,308	100,22
0,344	100,97
0,383	101,93
0,423	102,90
0,463	103,65
0,507	104,76
0,551	106,08
0,595	107,26
0,639	108,79
0,686	110,05
0,734	111,26
0,781	113,03
0,828	114,91
0,875	116,62
0,924	119,24
0,972	120,71
1,019	122,65
1,068	124,77
1,115	126,30
1,162	127,96
1,210	130,01
1,255	132,23
1,301	135,46
1,346	139,72
1,390	143,66
1,434	148,34
1,475	151,23
1,516	154,55
1,555	157,28
1,593	159,41
1,629	162,45
1,665	166,05
1,698	169,29
1,729	172,55
1,759	174,90
1,788	176,86
1,814	179,34
1,839	182,45
1,861	185,35
1,882	189,98
1,899	193,75
1,913	196,44
1,927	199,65
1,938	202,70
1,948	204,63
1,956	206,88
1,962	208,23
1,965	209,85
1,965	211,22
1,965	212,07
1,962	212,96
1,957	213,39
1,949	213,61
1,940	213,38
1,927	212,72
1,912	212,08
1,896	210,78
1,879	209,20
1,858	207,86
1,836	205,89
1,811	203,86
1,784	202,20
1,756	200,20
1,726	198,05
1,696	196,35
1,663	194,20
1,629	191,77
1,591	189,88
1,552	187,37
1,511	185,28
1,470	182,12
1,428	179,06
1,385	176,65
1,343	173,47
1,297	169,78
1,253	167,48
1,206	164,97
1,159	162,79
1,112	160,96
1,063	158,38
1,016	155,56
0,968	152,95
0,920	149,72
0,872	146,32
0,825	143,83
0,776	140,69
0,729	137,84
0,683	135,93
0,638	133,45
0,592	130,96
0,548	129,08
0,504	126,39
0,460	124,03
0,419	121,07
0,380	118,23
0,342	116,18
0,306	113,93
0,270	112,08
0,236	110,80
0,203	109,44
0,170	108,66
0,141	107,71
0,113	106,54
0,088	105,68
0,064	104,40
0,042	103,13
0,022	102,13
0,005	101,06
-0,013	100,41
-0,027	99,76
-0,038	98,88
-0,047	98,54
-0,053	98,22
-0,060	97,75
-0,063	97,37
-0,064	96,96
-0,064	96,52
-0,061	96,22
-0,057	95,89
-0,050	95,55
-0,041	95,37
-0,030	95,28
-0,016	95,24
0,000	95,31
0,019	95,34
0,039	95,58
0,060	95,89
0,082	96,28
0,107	96,62
0,135	97,12
0,165	97,75
0,195	98,29
0,228	99,06
0,261	99,91
0,295	100,65
0,333	101,68
0,371	102,78
0,412	103,66
0,452	104,83
0,495	105,78
0,537	106,99
0,581	107,98
0,627	108,81
0,672	110,00
0,719	111,27
0,767	112,40
0,814	114,20
0,861	116,42
0,909	118,31
0,957	121,11
1,005	123,49
1,054	126,51
1,103	129,35
1,150	131,45
1,197	133,84
1,243	135,56
1,288	136,88
1,334	138,18
1,378	139,76
1,422	141,33
1,464	143,57
1,505	146,24
1,544	148,68
1,582	152,05
1,618	155,66
1,654	158,65
1,689	162,72
1,720	167,24
1,751	171,43
1,780	176,58
1,806	179,91
1,832	183,77
1,854	187,29
1,874	190,11
1,893	193,54
1,910	196,11
1,924	198,08
1,937	200,71
1,946	203,34
1,954	205,40
1,960	207,71
1,963	209,78
1,967	211,24
1,967	212,65
1,963	213,51
1,959	213,97
1,951	213,84
1,942	213,38
1,931	212,83
1,916	211,70
1,902	210,72
1,885	209,28
1,865	207,82
1,843	206,39
1,819	204,56
1,792	202,63
1,764	201,03
1,734	198,92
1,706	196,76
1,674	194,73
1,640	192,42
1,602	190,03
1,563	188,06
1,522	185,34
1,481	182,40
1,440	179,91
1,398	176,52
1,356	173,50
1,312	170,85
1,266	167,70
1,219	165,37
1,172	162,44
1,125	159,31
1,078	156,80
1,030	153,91
0,982	151,29
0,935	149,53
0,886	146,80
0,837	144,13
0,790	141,88
0,741	139,25
0,696	136,19
0,650	133,89
0,605	131,29
0,561	128,49
0,517	126,20
0,473	123,35
0,432	120,86
0,391	119,21
0,352	116,97
0,314	116,20
0,278	114,77
0,243	113,14
0,210	112,08
0,179	110,83
0,149	109,48
0,121	108,29
0,094	106,75
0,069	105,69
0,047	104,42
0,027	103,29
0,008	102,60
-0,008	101,63
-0,024	100,74
-0,035	100,12
-0,044	99,48
-0,052	98,80
-0,058	98,27
-0,063	97,66
-0,064	97,20
-0,064	96,76
-0,063	96,39
-0,058	96,08
-0,052	95,80
-0,044	95,56
-0,033	95,41
-0,020	95,33
-0,005	95,29
0,013	95,33
0,033	95,46
0,053	95,61
0,075	95,86
0,101	96,20
0,127	96,54
0,157	97,13
0,187	97,61
0,218	98,12
0,251	98,91
0,286	99,68
0,324	100,42
0,361	101,32
0,401	102,12
0,441	103,23
0,482	104,52
0,526	105,59
0,570	106,86
0,614	108,16
0,660	109,50
0,707	111,22
0,754	112,54
0,801	113,81
0,848	115,94
0,897	117,67
0,946	118,95
0,993	120,89
1,041	122,56
1,090	124,73
1,136	127,85
1,183	130,49
1,230	134,22
1,275	137,58
1,321	140,24
1,367	143,14
1,411	145,65
1,453	147,79
1,494	150,87
1,533	154,41
1,572	157,45
1,608	161,21
1,645	164,18
1,679	166,17
1,712	168,79
1,744	171,50
1,772	173,88
1,800	177,10
1,825	179,92
1,847	183,65
1,869	188,24
1,888	191,31
1,904	194,96
1,920	198,37
1,932	200,79
1,943	203,47
1,951	205,86
1,959	207,58
1,963	209,42
1,965	210,82
1,965	211,82
1,963	212,72
1,959	213,21
1,953	213,43
1,945	213,28
1,934	212,80
1,921	212,19
1,905	211,05
1,888	209,69
1,869	208,31
1,849	206,55
1,825	204,88
1,799	202,80
1,772	200,70
1,744	199,06
1,714	196,94
1,682	194,65
1,648	192,94
1,612	190,60
1,574	188,22
1,535	186,17
1,494	183,18
1,451	179,58
1,409	176,65
1,365	172,95
1,321	170,01
1,277	168,03
1,232	165,84
1,184	163,70
1,137	161,88
1,090	159,10
1,041	156,24
0,993	152,47
0,946	148,85
0,898	146,10
0,850	143,11
0,803	140,66
0,754	138,53
0,708	135,98
0,661	132,81
0,616	130,44
0,572	128,55
0,526	125,99
0,484	124,99
0,441	123,01
0,402	121,34
0,363	119,68
0,325	117,47
0,287	116,27
0,251	114,34
0,218	112,14
0,187	110,93
0,156	109,68
0,127	108,20
0,102	107,07
0,077	105,97
0,053	104,82
0,033	103,97
0,013	102,68
-0,005	101,60
-0,019	100,50
-0,031	99,33
-0,042	98,45
-0,050	97,69
-0,057	97,17
-0,061	96,88
-0,064	96,49
-0,064	96,20
-0,063	96,03
-0,060	95,93
-0,053	95,76
-0,047	95,65
-0,036	95,52
-0,024	95,49
-0,009	95,46
0,009	95,57
0,028	95,69
0,049	95,89
0,071	96,14
0,094	96,35
0,119	96,75
0,148	97,20
0,179	97,57
0,210	98,19
0,243	98,74
0,278	99,67
0,314	100,73
0,352	101,68
0,391	102,95
0,430	104,31
0,473	105,30
0,515	106,39
0,559	107,52
0,603	108,45
0,649	109,65
0,694	110,59
0,743	112,02
0,790	113,55
0,837	114,71
0,884	116,47
0,933	118,50
0,980	120,41
1,029	123,24
1,079	125,05
1,125	126,94
1,172	129,44
1,219	131,74
1,264	134,80
1,310	138,55
1,356	141,13
1,400	143,49
1,442	145,84
1,484	147,52
1,524	150,36
1,563	154,19
1,601	158,04
1,637	163,52
1,671	168,73
1,704	172,10
1,736	175,18
1,766	177,61
1,792	179,42
1,819	181,86
1,843	184,54
1,865	186,85
1,885	189,92
1,902	193,19
1,916	196,04
1,929	199,56
1,940	203,08
1,948	205,37
1,956	207,42
1,962	208,84
1,965	210,46
1,967	211,65
1,965	212,55
1,962	213,17
1,956	213,50
1,948	213,49
1,937	213,15
1,924	212,37
1,909	211,53
1,893	210,15
1,874	208,52
1,854	207,15
1,832	205,30
1,806	203,30
1,778	201,72
1,750	199,76
1,718	197,68
1,689	195,84
1,656	193,46
1,621	190,98
1,583	188,85
1,544	186,03
1,503	183,63
1,461	180,41
1,418	177,25
1,376	175,09
1,332	172,55
1,288	170,00
1,243	167,98
1,197	165,03
1,148	161,98
1,101	159,50
1,052	156,15
1,005	152,45
0,957	149,30
0,909	145,53
0,861	142,36
0,814	140,09
0,765	137,76
0,718	136,18
0,672	134,88
0,627	133,18
0,583	131,11
0,539	129,14
0,495	126,94
0,451	124,87
0,410	122,26
0,371	119,63
0,333	117,86
0,295	116,06
0,261	114,07
0,226	112,92
0,195	111,59
0,163	110,04
0,134	108,93
0,107	107,56
0,082	106,44
0,058	105,23
0,038	104,18
0,017	103,30
-0,002	102,34
-0,016	101,45
-0,030	100,77
-0,039	99,96
-0,049	99,41
-0,055	98,72
-0,060	98,10
-0,064	97,68
-0,064	97,15
-0,064	96,64
-0,060	96,32
-0,055	95,93
-0,049	95,59
-0,039	95,37
-0,027	95,20
-0,013	95,10
0,005	95,04
0,024	95,11
0,044	95,23
0,066	95,49
0,088	95,84
0,113	96,18
0,141	96,69
0,171	97,24
0,204	97,71
0,236	98,43
0,270	98,99
0,306	99,72
0,342	100,61
0,382	101,37
0,421	102,31
0,463	103,31
0,506	104,25
0,550	105,49
0,594	106,90
0,638	108,16
0,685	109,59
0,732	111,10
0,779	112,42
0,828	114,00
0,875	115,35
0,922	117,23
0,971	119,61
1,018	121,55
1,067	123,52
1,114	126,19
1,162	128,35
1,208	130,75
1,255	133,05
1,301	136,55
1,346	139,88
1,390	143,36
1,433	146,24
1,475	148,90
1,516	150,68
1,555	153,05
1,593	155,77
1,629	158,02
1,663	161,26
1,698	165,27
1,729	169,23
1,759	174,91
1,788	181,12
1,814	184,84
1,838	187,40
1,861	189,39
1,880	190,98
1,898	192,96
1,913	195,38
1,927	197,63
1,938	200,75
1,948	203,91
1,956	206,32
1,962	208,88
1,965	210,54
1,967	212,12
1,967	213,20
1,962	213,42
1,957	213,56
1,949	213,23
1,938	212,90
1,927	212,03
1,913	211,12
1,896	210,24
1,879	208,97
1,858	207,54
1,836	206,11
1,811	204,34
1,784	202,23
1,755	200,40
1,725	198,16
1,695	196,29
1,663	193,82
1,629	191,46
1,591	189,52
1,552	187,00
1,511	184,47
1,470	182,49
1,428	179,92
1,384	177,03
1,341	174,56
1,297	171,52
1,252	168,55
1,205	166,17
1,158	163,15
1,111	160,14
1,062	157,61
1,015	154,56
0,966	151,36
0,919	148,97
0,870	146,22
0,823	143,70
0,774	141,68
0,727	139,05
0,682	137,02
0,636	134,43
0,591	131,57
0,547	128,76
0,503	125,28
0,460	121,97
0,419	119,62
0,379	117,28
0,341	115,65
0,303	114,57
0,267	113,25
0,232	112,48
0,199	111,25
0,170	110,04
0,140	108,70
0,113	107,34
0,086	105,70
0,063	105,05
0,041	103,65
0,020	102,34
0,003	101,65
-0,013	101,00
-0,027	100,35
-0,038	99,41
-0,047	98,61
-0,053	98,22
-0,060	97,78
-0,064	97,28
-0,066	96,84
-0,064	96,41
-0,061	96,04
-0,057	95,90
-0,049	95,69
-0,041	95,56
-0,030	95,42
-0,016	95,35
0,002	95,37
0,019	95,48
0,039	95,71
0,061	95,86
0,083	96,17
0,108	96,55
0,137	96,89
0,167	97,39
0,198	97,91
0,229	98,60
0,264	99,35
0,298	100,05
0,336	101,08
0,374	102,37
0,413	103,44
0,454	104,79
0,496	106,22
0,540	107,02
0,584	108,29
0,630	109,54
0,675	110,47
0,723	111,57
0,770	112,68
0,817	114,21
0,866	115,75
0,913	116,99
0,961	118,73
1,008	120,64
1,057	122,55
1,104	125,77
1,151	128,41
1,199	132,39
1,246	136,04
1,291	138,63
1,337	141,55
1,381	143,81
1,425	145,47
1,467	147,29
1,506	149,39
1,546	151,51
1,585	154,84
1,621	157,93
1,657	160,63
1,692	164,49
1,723	168,44
1,753	171,68
1,781	175,81
1,810	179,85
1,833	182,77
1,857	186,47
1,877	189,94
1,894	192,58
1,910	195,92
1,924	198,19
1,935	201,28
1,945	204,00
1,954	206,00
1,960	208,20
1,963	210,03
1,965	211,24
1,965	212,39
1,963	213,18
1,959	213,41
1,951	213,49
1,942	213,00
1,931	212,47
1,915	211,62
1,899	210,41
1,882	209,21
1,863	207,65
1,841	205,97
1,816	204,46
1,791	202,51
1,761	200,42
1,733	198,72
1,701	196,53
1,670	194,71
1,637	192,26
1,599	189,92
1,560	187,87
1,519	185,01
1,478	181,93
1,436	179,35
1,395	176,01
1,351	172,83
1,307	170,37
1,261	167,45
1,214	164,37
1,167	161,73
1,120	158,59
1,073	155,58
1,024	153,34
0,977	150,94
0,928	148,45
0,881	145,62
0,833	142,08
0,784	138,68
0,737	136,47
0,691	133,51
0,646	131,37
0,600	129,51
0,556	127,24
0,512	126,38
0,468	124,74
0,427	122,44
0,386	120,53
0,349	118,46
0,311	115,64
0,275	114,38
0,240	112,87
0,207	111,26
0,176	110,06
0,146	108,83
0,118	107,61
0,093	106,52
0,068	105,38
0,046	104,37
0,025	103,19
0,006	102,33
-0,011	101,62
-0,025	100,50
-0,035	99,88
-0,044	99,22
-0,052	98,59
-0,058	98,10
-0,063	97,55
-0,066	97,05
-0,064	96,68
-0,061	96,31
-0,057	95,88
-0,050	95,62
-0,042	95,35
-0,033	95,17
-0,019	95,04
-0,003	94,96
0,016	94,98
0,036	95,08
0,057	95,27
0,079	95,50
0,102	95,88
0,130	96,37
0,160	96,86
0,190	97,54
0,223	98,17
0,256	98,96
0,291	99,81
0,327	100,61
0,366	101,61
0,405	102,77
0,446	103,65
0,489	104,73
0,531	105,87
0,575	106,79
0,620	108,05
0,666	109,15
0,712	110,67
0,760	112,58
0,807	114,53
0,855	117,08
0,903	119,87
0,952	122,11
0,999	123,82
1,048	125,44
1,096	126,74
1,144	128,15
1,191	129,36
1,236	131,27
1,282	133,44
1,327	135,37
1,371	138,18
1,415	142,14
1,458	145,31
1,499	150,90
1,539	156,46
1,577	160,30
1,615	164,18
1,649	166,71
1,684	168,46
1,717	171,26
1,747	175,06
1,777	177,49
1,803	180,65
1,828	183,40
1,852	185,50
1,872	188,57
1,891	190,91
1,909	194,20
1,923	197,52
1,934	200,39
1,945	203,73
1,953	206,50
1,960	208,12
1,965	209,77
1,967	211,03
1,967	211,91
1,963	212,67
1,959	213,22
1,951	213,42
1,943	213,31
1,932	212,85
1,918	212,18
1,902	211,03
1,887	209,62
1,866	208,34
1,846	206,40
1,821	204,69
1,795	202,48
1,767	200,24
1,737	198,58
1,707	196,55
1,678	194,53
1,643	192,74
1,607	190,45
1,569	187,95
1,528	185,89
1,486	183,01
1,444	179,84
1,401	177,10
1,359	173,71
1,315	170,56
1,271	168,24
1,225	165,57
1,178	162,80
1,129	160,32
1,082	156,98
1,034	154,17
0,986	150,79
0,938	147,82
0,891	145,39
0,842	143,29
0,795	140,99
0,748	138,92
0,701	136,52
0,655	133,88
0,609	131,50
0,564	128,95
0,520	126,06
0,478	124,28
0,435	122,30
0,396	120,28
0,357	118,73
0,319	117,02
0,281	115,70
0,247	113,84
0,214	112,06
0,181	110,72
0,151	109,13
0,123	107,56
0,096	106,62
0,072	105,38
0,050	104,29
0,030	103,50
0,011	102,53
-0,006	101,84
-0,022	100,92
-0,035	100,10
-0,044	99,51
-0,052	98,69
-0,058	98,04
-0,063	97,56
-0,064	97,01
-0,066	96,52
-0,063	96,12
-0,058	95,76
-0,053	95,50
-0,044	95,24
-0,035	95,10
-0,022	95,03
-0,006	95,00
0,013	95,10
0,031	95,14
0,052	95,46
0,074	95,79
0,097	96,11
0,124	96,60
0,154	96,99
0,184	97,63
0,217	98,36
0,250	99,00
0,284	99,82
0,320	100,75
0,358	101,53
0,397	102,66
0,438	103,79
0,479	104,62
0,523	105,73
0,567	106,75
0,611	107,96
0,657	109,18
0,704	110,33
0,751	112,07
0,798	114,48
0,847	116,47
0,894	118,82
0,942	120,63
0,990	122,12
1,038	123,87
1,087	125,07
1,134	126,68
1,181	129,02
1,227	131,43
1,274	134,92
1,319	139,16
1,363	142,65
1,407	146,72
1,450	150,23
1,491	152,74
1,532	155,51
1,569	157,72
1,607	159,73
1,643	162,34
1,678	165,27
1,711	167,78
1,742	171,43
1,770	174,24
1,799	177,74
1,824	181,52
1,847	184,42
1,868	188,00
1,887	191,55
1,905	194,29
1,920	197,89
1,932	200,90
1,943	203,20
1,951	205,74
1,959	207,91
1,963	209,51
1,965	210,98
1,967	212,06
1,965	212,74
1,960	213,07
1,954	213,21
1,945	213,03
1,934	212,69
1,921	211,85
1,907	211,06
1,890	209,90
1,871	208,77
1,850	207,13
1,827	205,32
1,800	203,76
1,772	201,78
1,744	199,61
1,714	197,87
1,682	195,54
1,649	193,23
1,615	191,20
1,577	188,82
1,536	186,14
1,495	183,93
1,453	180,91
1,411	177,71
1,368	175,00
1,324	171,76
1,279	168,51
1,233	166,07
1,188	163,08
1,140	160,06
1,092	157,67
1,043	154,99
0,994	152,22
0,947	150,42
0,900	147,68
0,851	145,76
0,804	142,98
0,757	139,89
0,710	137,68
0,663	134,71
0,617	132,07
0,573	129,78
0,529	127,33
0,485	125,25
0,443	123,57
0,404	121,68
0,363	119,60
0,325	117,58
0,287	115,81
0,253	114,29
0,220	112,48
0,188	111,03
0,157	109,75
0,129	107,89
0,102	106,19
0,077	104,96
0,053	103,90
0,033	103,11
0,014	102,43
-0,003	101,68
-0,019	101,20
-0,031	100,69
-0,042	100,05
-0,050	99,51
-0,057	98,73
-0,061	98,12
-0,064	97,67
-0,064	97,08
-0,063	96,55
-0,060	96,15
-0,053	95,70
-0,047	95,43
-0,036	95,13
-0,025	95,02
-0,009	94,99
0,008	95,03
0,027	95,18
0,049	95,41
0,071	95,81
0,094	96,18
0,119	96,47
0,148	97,01
0,178	97,49
0,209	98,14
0,242	98,78
0,278	99,40
0,314	100,17
0,352	101,05
0,390	101,87
0,430	102,98
0,471	104,30
0,514	105,62
0,558	107,29
0,602	108,79
0,647	110,16
0,694	111,34
0,741	112,32
0,789	113,58
0,836	114,77
0,884	115,86
0,931	117,54
0,980	119,63
1,029	121,09
1,078	123,31
1,123	126,01
1,170	128,51
1,217	132,37
1,263	135,22
1,310	139,37
1,356	143,30
1,398	146,24
1,442	148,66
1,483	150,69
1,524	152,01
1,561	153,98
1,601	156,26
1,637	158,29
1,671	161,38
1,704	164,88
1,736	167,93
1,764	172,05
1,792	176,25
1,819	179,69
1,843	183,85
1,865	187,84
1,883	190,97
1,902	194,44
1,916	197,87
1,931	200,33
1,942	203,09
1,951	205,22
1,957	207,41
1,962	209,20
1,965	210,46
1,967	211,68
1,965	212,26
1,962	212,51
1,956	212,46
1,948	212,17
1,937	211,93
1,924	211,44
1,910	210,76
1,893	209,83
1,874	208,59
1,854	207,02
1,832	205,60
1,806	203,63
1,780	201,57
1,750	199,98
1,720	197,74
1,689	195,41
1,657	193,62
1,621	191,12
1,585	189,23
1,544	186,66
1,503	184,16
1,462	182,09
1,418	179,26
1,376	176,51
1,332	174,24
1,288	171,47
1,243	168,66
1,197	166,40
1,148	163,13
1,101	158,98
1,052	155,09
1,005	151,39
0,957	148,71
0,909	147,30
0,861	145,33
0,814	143,33
0,767	141,55
0,719	139,18
0,672	136,61
0,627	134,48
0,581	131,82
0,537	129,49
0,495	126,80
0,451	124,29
0,410	122,47
0,371	120,27
0,333	118,34
0,295	116,84
0,261	115,04
0,226	113,30
0,193	112,05
0,163	110,63
0,135	109,27
0,107	107,44
0,082	105,57
0,058	104,30
0,036	103,41
0,017	102,37
0,000	101,66
-0,016	100,86
-0,030	100,32
-0,041	99,89
-0,049	99,16
-0,055	98,61
-0,060	98,04
-0,063	97,64
-0,064	97,27
-0,064	96,78
-0,061	96,32
-0,055	96,11
-0,049	95,85
-0,039	95,72
-0,027	95,62
-0,013	95,56
0,005	95,62
0,024	95,75
0,044	95,95
0,064	96,10
0,088	96,42
0,113	96,87
0,141	97,23
0,171	97,84
0,204	98,41
0,236	98,99
0,270	99,79
0,306	100,54
0,342	101,37
0,382	102,28
0,421	103,03
0,462	104,03
0,506	105,10
0,548	106,13
0,594	107,53
0,638	109,27
0,685	110,58
0,732	112,45
0,779	113,63
0,828	114,98
0,875	116,49
0,922	117,73
0,969	119,47
1,018	121,79
1,067	123,64
1,115	125,62
1,162	128,21
1,208	130,35
1,255	132,52
1,299	134,57
1,345	137,30
1,389	140,31
1,433	143,24
1,475	146,33
1,516	149,66
1,554	152,21
1,593	155,60
1,629	158,96
1,663	161,64
1,698	165,29
1,728	169,01
1,758	172,18
1,788	176,10
1,814	180,21
1,839	183,18
1,861	187,03
1,880	190,73
1,898	193,71
1,913	197,39
1,927	200,17
1,938	202,84
1,948	204,97
1,956	206,59
1,962	208,39
1,965	209,77
1,967	210,50
1,965	211,35
1,962	212,11
1,957	212,58
1,949	212,57
1,940	212,01
1,927	211,28
1,913	210,36
1,896	209,28
1,879	208,24
1,858	206,83
1,836	205,36
1,811	203,96
1,784	201,66
1,755	199,51
1,726	197,85
1,695	195,78
1,663	194,11
1,629	191,82
1,591	189,45
1,552	187,55
1,511	184,86
1,470	182,12
1,428	179,78
1,385	176,60
1,343	173,18
1,297	170,47
1,252	167,05
1,206	163,62
1,159	161,13
1,111	157,92
1,063	154,93
1,015	152,61
0,968	150,31
0,919	147,91
0,872	145,89
0,823	143,03
0,776	140,42
0,729	138,05
0,682	135,32
0,636	133,12
0,592	130,12
0,547	127,80
0,503	125,75
0,460	123,39
0,419	121,45
0,380	119,68
0,342	117,59
0,305	116,28
0,269	114,66
0,234	113,28
0,201	112,19
0,170	110,45
0,140	109,15
0,113	108,05
0,086	106,50
0,063	105,08
0,041	104,17
0,020	103,01
0,003	101,89
-0,013	101,07
-0,027	100,23
-0,038	99,69
-0,046	99,03
-0,053	98,41
-0,060	97,93
-0,064	97,45
-0,066	96,96
-0,064	96,62
-0,061	96,20
-0,057	95,90
-0,049	95,67
-0,041	95,50
-0,030	95,32
-0,016	95,30
0,000	95,31
0,019	95,37
0,039	95,58
0,060	95,84
0,083	96,17
0,108	96,59
0,135	97,10
0,165	97,62
0,196	98,28
0,229	98,85
0,262	99,63
0,298	100,51
0,335	101,21
0,374	102,22
0,413	103,32
0,454	104,29
0,496	105,49
0,540	106,60
0,584	107,63
0,628	109,10
0,675	110,17
0,721	111,39
0,768	112,82
0,817	114,10
0,864	115,71
0,913	117,56
0,960	119,35
1,008	122,27
1,057	124,84
1,104	126,50
1,153	128,96
1,199	130,91
1,246	133,18
1,291	136,45
1,337	139,83
1,381	143,61
1,425	146,59
1,466	148,73
1,506	150,97
1,546	153,18
1,585	155,45
1,621	158,40
1,656	161,66
1,690	164,91
1,723	169,66
1,753	175,06
1,783	179,22
1,810	183,98
1,833	187,33
1,855	189,35
1,876	191,80
1,894	194,30
1,910	196,32
1,924	199,17
1,937	201,50
1,946	204,38
1,954	207,05
1,960	208,52
1,965	209,85
1,967	210,71
1,967	211,26
1,963	211,82
1,957	212,27
1,951	212,58
1,942	212,63
1,929	212,40
1,916	211,80
1,901	210,63
1,883	208,97
1,863	207,54
1,841	205,62
1,817	203,90
1,791	202,53
1,761	200,67
1,731	198,74
1,701	196,80
1,671	194,26
1,637	192,21
1,601	189,73
1,561	187,15
1,521	184,86
1,478	182,00
1,436	179,16
1,393	176,96
1,351	174,12
1,307	171,20
1,263	168,80
1,217	165,81
1,170	162,77
1,122	160,38
1,074	157,51
1,026	154,56
0,977	152,22
0,930	149,33
0,881	146,42
0,834	144,03
0,787	141,10
0,738	138,25
0,693	135,96
0,646	133,42
0,602	131,48
0,556	128,83
0,512	126,61
0,470	124,70
0,429	122,88
0,388	120,91
0,350	119,59
0,313	117,73
0,275	115,76
0,240	114,28
0,207	112,48
0,176	110,93
0,146	109,57
0,118	108,24
0,093	107,15
0,068	105,94
0,046	104,88
0,025	104,09
0,006	103,13
-0,009	102,21
-0,024	101,49
-0,036	100,48
-0,046	99,72
-0,053	98,75
-0,060	97,73
-0,063	96,98
-0,064	96,46
-0,064	96,05
-0,061	95,65
-0,058	95,39
-0,052	95,45
-0,042	95,55
-0,033	95,55
-0,020	95,60
-0,005	95,72
0,014	95,97
0,035	96,14
0,057	96,35
0,079	96,68
0,102	96,98
0,129	97,44
0,159	98,00
0,188	98,41
0,221	99,09
0,254	99,78
0,291	100,52
0,327	101,26
0,364	101,92
0,404	102,86
0,445	103,78
0,487	104,62
0,529	105,70
0,573	106,82
0,619	107,76
0,664	108,98
0,712	110,33
0,759	111,43
0,806	112,98
0,853	114,56
0,902	116,90
0,950	118,69
0,997	120,36
1,046	122,58
1,095	124,65
1,140	126,30
1,188	128,94
1,235	132,31
1,280	135,37
1,326	139,46
1,370	141,80
1,414	144,69
1,456	146,94
1,497	149,02
1,538	152,45
1,576	155,17
1,613	157,86
1,649	161,09
1,684	164,75
1,715	167,58
1,745	171,36
1,775	175,70
1,802	178,89
1,827	182,72
1,850	186,62
1,871	189,56
1,890	193,44
1,907	196,36
1,921	198,50
1,934	201,14
1,945	203,65
1,953	205,50
1,959	207,66
1,963	209,08
1,967	210,78
1,967	211,94
1,965	212,60
1,960	213,12
1,953	213,25
1,943	213,11
1,932	212,65
1,920	211,96
1,904	211,06
1,887	209,81
1,868	208,17
1,846	206,81
1,822	204,85
1,797	202,69
1,769	200,93
1,739	198,76
1,709	196,93
1,678	194,64
1,645	192,33
1,608	190,45
1,571	188,04
1,532	185,52
1,489	183,43
1,447	180,75
1,404	177,73
1,360	175,06
1,318	171,50
1,272	167,65
1,227	164,32
1,181	160,64
1,133	158,33
1,085	156,81
1,037	155,11
0,988	152,95
0,941	151,15
0,892	148,49
0,845	145,41
0,796	142,73
0,749	139,04
0,704	135,87
0,657	132,62
0,611	130,04
0,567	128,09
0,523	126,09
0,479	124,25
0,437	122,41
0,396	119,76
0,358	117,30
0,320	115,28
0,284	113,57
0,250	112,44
0,215	110,68
0,184	109,47
0,152	108,56
0,124	107,57
0,097	106,61
0,074	105,78
0,052	104,71
0,030	103,67
0,011	102,86
-0,006	101,83
-0,020	100,79
-0,033	100,03
-0,042	99,21
-0,052	98,64
-0,058	97,92
-0,061	97,32
-0,064	96,87
-0,064	96,43
-0,063	96,03
-0,058	95,75
-0,053	95,49
-0,046	95,24
-0,035	95,13
-0,024	95,06
-0,008	95,04
0,009	95,10
0,030	95,28
0,052	95,45
0,074	95,81
0,097	96,30
0,123	96,66
0,151	97,26
0,181	97,92
0,214	98,52
0,247	99,33
0,281	99,98
0,317	100,93
0,355	101,94
0,394	102,71
0,435	103,63
0,476	104,74
0,518	105,51
0,562	106,64
0,606	107,78
0,653	108,75
0,701	110,32
0,746	111,79
0,795	114,17
0,842	116,50
0,889	118,73
0,936	121,55
0,985	123,64
1,034	125,08
1,082	126,84
1,129	128,30
1,177	129,54
1,222	131,75
1,269	134,02
1,315	137,42
1,359	141,73
1,403	145,37
1,447	148,99
1,488	151,42
1,527	153,08
1,566	154,92
1,604	157,45
1,640	159,63
1,674	162,79
1,707	166,48
1,739	169,51
1,767	173,78
1,795	177,83
1,821	181,20
1,844	185,20
1,866	189,25
1,885	192,43
1,904	196,32
1,918	198,92
1,931	201,47
1,942	203,50
1,951	204,95
1,959	206,66
1,963	208,48
1,965	209,75
1,967	211,17
1,965	212,13
1,962	212,44
1,956	212,35
1,946	212,16
1,935	211,85
1,923	211,11
1,909	210,19
1,891	209,32
1,874	207,91
1,852	206,43
1,828	205,14
1,803	203,39
1,777	201,93
1,747	199,76
1,717	197,39
1,687	195,20
1,654	192,42
1,618	189,39
1,580	187,18
1,541	184,90
1,500	182,91
1,458	181,23
1,415	178,88
1,373	176,60
1,329	174,41
1,285	171,53
1,239	168,54
1,192	166,09
1,145	163,06
1,096	159,92
1,049	157,51
1,002	154,59
0,953	151,53
0,906	149,23
0,858	146,29
0,809	143,92
0,762	141,17
0,715	138,47
0,669	136,53
0,624	133,73
0,580	130,22
0,536	127,38
0,492	124,20
0,449	121,71
0,408	120,41
0,369	118,84
0,330	117,54
0,294	116,61
0,258	115,00
0,225	113,56
0,192	112,16
0,162	110,60
0,134	109,38
0,105	107,93
0,080	106,49
0,057	105,31
0,035	103,85
0,016	102,58
-0,002	101,46
-0,017	100,62
-0,030	99,53
-0,041	98,81
-0,049	98,13
-0,055	97,60
-0,060	97,11
-0,063	96,80
-0,064	96,50
-0,064	96,19
-0,061	96,00
-0,055	95,94
-0,047	95,84
-0,038	95,76
-0,025	95,67
-0,011	95,70
0,005	95,76
0,024	95,90
0,044	96,15
0,066	96,35
0,090	96,65
0,116	97,03
0,143	97,37
0,173	97,95
0,204	98,43
0,237	99,14
0,272	99,90
0,308	100,63
0,344	101,73
0,383	102,97
0,424	103,89
0,465	105,31
0,507	106,49
0,551	107,39
0,595	108,86
0,641	110,32
0,686	111,20
0,734	112,68
0,781	114,00
0,829	115,33
0,877	116,81
0,925	118,03
0,972	119,66
1,021	121,38
1,070	122,92
1,117	125,01
1,164	127,25
1,210	129,16
1,257	132,12
1,302	134,96
1,348	139,19
1,392	144,23
1,436	148,47
1,477	152,01
1,517	154,66
1,555	156,05
1,593	158,03
1,630	160,14
1,665	162,03
1,700	165,04
1,731	168,40
1,761	171,55
1,789	175,59
1,816	179,69
1,839	183,01
1,861	187,08
1,880	191,17
1,899	194,54
1,915	198,23
1,927	200,66
1,940	202,96
1,949	204,93
1,956	206,47
1,962	208,30
1,965	209,84
1,967	210,93
1,965	211,94
1,962	212,56
1,957	212,87
1,949	212,87
1,938	212,62
1,926	212,07
1,912	211,14
1,896	209,89
1,877	208,67
1,858	207,02
1,835	204,97
1,811	203,18
1,783	201,10
1,755	199,34
1,725	197,15
1,695	194,96
1,663	193,33
1,629	191,41
1,591	189,23
1,552	187,25
1,511	184,57
1,469	181,93
1,426	179,75
1,384	177,00
1,341	174,17
1,297	171,72
1,250	168,54
1,205	165,12
1,158	162,27
1,111	158,80
1,062	155,23
1,015	152,56
0,966	149,39
0,919	146,69
0,870	144,67
0,823	142,18
0,774	140,34
0,727	137,90
0,682	135,21
0,636	132,94
0,591	130,40
0,547	127,69
0,503	125,74
0,460	123,61
0,419	121,51
0,379	119,93
0,341	118,17
0,305	116,45
0,267	115,01
0,234	113,30
0,201	112,02
0,170	110,37
0,140	108,82
0,113	107,57
0,086	106,18
0,063	105,00
0,041	104,10
0,020	103,09
0,003	102,18
-0,013	101,48
-0,027	100,67
-0,038	100,10
-0,047	99,36
-0,055	98,66
-0,060	98,16
-0,064	97,56
-0,064	97,01
-0,064	96,56
-0,061	96,11
-0,057	95,71
-0,050	95,44
-0,041	95,19
-0,030	95,04
-0,016	94,93
0,000	94,95
0,019	95,02
0,039	95,25
0,060	95,52
0,083	95,80
0,108	96,27
0,135	96,79
0,165	97,28
0,196	98,01
0,228	98,70
0,262	99,36
0,298	100,18
0,336	100,93
0,374	101,80
0,413	102,79
0,454	103,66
0,495	104,84
0,539	106,04
0,583	107,01
0,628	108,36
0,674	109,71
0,721	110,88
0,768	112,52
0,815	114,03
0,864	116,25
0,911	118,50
0,960	119,97
1,007	122,30
1,056	124,23
1,104	125,73
1,151	127,76
1,199	130,02
1,244	132,19
1,290	135,45
1,335	137,41
1,379	140,32
1,423	143,54
1,466	146,27
1,506	151,27
1,546	155,93
1,583	158,76
1,619	161,50
1,656	163,76
1,690	165,82
1,722	168,70
1,753	171,81
1,781	174,66
1,808	178,19
1,832	182,27
1,855	185,92
1,876	190,54
1,894	195,05
1,910	198,11
1,924	200,61
1,937	202,03
1,946	203,28
1,954	205,11
1,960	206,66
1,963	208,84
1,967	210,94
1,967	212,17
1,963	213,00
1,959	213,17
1,951	212,85
1,942	212,22
1,931	211,38
1,916	210,73
1,901	209,74
1,883	208,66
1,863	207,54
1,843	206,07
1,817	204,27
1,792	202,64
1,762	200,64
1,734	198,59
1,704	196,77
1,673	194,16
1,638	192,02
1,602	188,95
1,561	185,78
1,521	183,23
1,480	180,20
1,439	177,64
1,396	176,06
1,354	174,31
1,310	172,07
1,264	170,10
1,219	167,51
1,172	164,53
1,123	161,94
1,076	158,30
1,027	154,57
0,980	151,59
0,931	147,74
0,884	144,65
0,836	142,40
0,789	140,10
0,741	137,67
0,694	135,90
0,649	133,68
0,603	131,62
0,559	128,98
0,515	125,88
0,473	123,70
0,430	120,87
0,390	118,90
0,350	117,09
0,313	115,07
0,276	113,56
0,243	112,33
0,210	110,87
0,178	110,10
0,148	109,00
0,119	107,83
0,093	106,77
0,069	105,41
0,047	104,20
0,027	103,20
0,008	101,98
-0,008	100,79
-0,024	100,09
-0,035	99,37
-0,044	98,68
-0,052	98,21
-0,058	97,69
-0,063	97,33
-0,066	96,95
-0,066	96,51
-0,063	96,28
-0,058	95,93
-0,052	95,66
-0,044	95,48
-0,033	95,32
-0,020	95,18
-0,005	95,09
0,014	95,10
0,033	95,21
0,053	95,40
0,075	95,69
0,101	96,02
0,127	96,49
0,157	97,09
0,188	97,57
0,220	98,43
0,253	99,24
0,287	99,96
0,324	100,92
0,363	101,67
0,401	102,63
0,441	103,60
0,484	104,51
0,526	105,71
0,572	106,90
0,616	107,88
0,661	109,28
0,707	110,92
0,754	112,35
0,803	114,41
0,850	116,33
0,897	118,41
0,946	120,52
0,994	121,98
1,041	124,41
1,090	126,18
1,137	128,22
1,184	130,37
1,232	132,54
1,277	134,64
1,323	137,32
1,367	140,71
1,409	144,13
1,451	147,18
1,494	150,32
1,533	152,50
1,572	155,15
1,610	158,11
1,646	160,58
1,681	163,98
1,712	166,95
1,744	170,83
1,772	175,35
1,800	179,22
1,825	183,36
1,849	187,34
1,869	190,25
1,888	193,09
1,905	195,59
1,921	197,63
1,934	200,32
1,943	203,15
1,953	205,46
1,959	208,03
1,963	209,79
1,967	210,65
1,967	211,13
1,965	211,47
1,960	211,72
1,953	212,12
1,945	212,23
1,934	211,97
1,921	211,06
1,905	210,02
1,890	208,55
1,871	207,16
1,849	206,17
1,825	204,72
1,800	203,13
1,772	201,62
1,742	199,67
1,712	197,30
1,682	195,48
1,648	193,05
1,613	190,60
1,574	188,49
1,535	185,87
1,494	183,27
1,451	181,17
1,409	178,52
1,367	175,85
1,323	173,61
1,277	170,85
1,232	168,55
1,186	165,67
1,139	162,40
1,090	159,71
1,043	156,35
0,994	152,98
0,946	150,43
0,897	147,46
0,850	144,65
0,803	142,49
0,756	139,88
0,708	137,30
0,663	135,36
0,616	132,91
0,572	130,40
0,528	128,07
0,484	125,19
0,443	123,07
0,402	120,15
0,363	118,30
0,325	116,78
0,287	115,15
0,253	113,81
0,220	112,80
0,188	111,46
0,157	110,08
0,129	108,98
0,101	107,45
0,075	105,73
0,053	104,55
0,033	103,26
0,014	101,89
-0,003	101,17
-0,019	100,40
-0,031	99,84
-0,042	99,17
-0,050	98,64
-0,057	98,19
-0,061	97,73
-0,064	97,32
-0,064	96,83
-0,063	96,37
-0,060	96,05
-0,053	95,66
-0,046	95,43
-0,036	95,20
-0,024	95,06
-0,009	94,96
0,008	94,96
0,027	95,08
0,047	95,27
0,069	95,49
0,093	95,84
0,119	96,14
0,148	96,67
0,178	97,18
0,209	97,69
0,242	98,40
0,276	99,14
0,313	99,86
0,350	100,73
0,390	101,71
0,430	102,54
0,471	103,72
0,514	104,80
0,558	106,33
0,602	108,18
0,647	109,48
0,693	111,31
0,740	112,51
0,787	113,86
0,836	115,31
0,883	116,61
0,931	117,81
0,980	119,76
1,027	121,56
1,076	123,47
1,123	125,71
1,170	127,94
1,216	131,12
1,263	135,04
1,308	138,27
1,354	142,31
1,398	145,51
1,440	147,92
1,481	150,12
1,522	152,47
1,561	154,19
1,599	156,81
1,635	159,58
1,670	162,04
1,703	165,53
1,734	169,19
1,764	172,20
1,792	176,27
1,817	180,09
1,843	185,04
1,865	189,07
1,883	191,77
1,901	194,85
1,916	197,70
1,931	199,76
1,942	202,12
1,951	204,47
1,957	206,33
1,962	208,42
1,965	210,21
1,967	211,51
1,965	212,64
1,962	213,45
1,956	213,60
1,948	213,49
1,938	213,00
1,924	212,25
1,910	211,13
1,893	209,79
1,876	208,58
1,855	206,88
1,833	205,50
1,806	203,75
1,780	201,61
1,750	200,04
1,720	197,89
1,690	195,66
1,659	193,87
1,624	191,37
1,587	188,94
1,547	186,80
1,505	184,30
1,464	181,54
1,422	179,44
1,378	176,56
1,335	173,57
1,291	171,04
1,246	167,63
1,200	164,18
1,151	161,59
1,104	158,30
1,056	155,42
1,008	153,15
0,960	150,38
0,913	148,18
0,864	145,45
0,817	142,50
0,770	140,18
0,723	137,25
0,675	133,98
0,630	132,01
0,586	129,61
0,540	127,30
0,498	125,42
0,454	123,35
0,413	121,37
0,374	119,80
0,336	117,83
0,298	116,45
0,262	114,75
0,229	113,01
0,196	111,79
0,167	110,28
0,137	108,87
0,110	107,84
0,083	106,58
0,060	105,52
0,039	104,47
0,019	103,05
0,002	101,96
-0,014	100,90
-0,028	100,09
-0,039	99,46
-0,047	98,69
-0,053	98,04
-0,060	97,62
-0,063	97,24
-0,064	96,79
-0,064	96,46
-0,061	96,03
-0,055	95,69
-0,049	95,44
-0,039	95,24
-0,028	95,17
-0,014	95,05
0,002	94,99
0,020	95,05
0,041	95,17
0,063	95,41
0,086	95,70
0,112	96,10
0,138	96,63
0,168	97,06
0,199	97,70
0,232	98,20
0,267	99,02
0,302	99,82
0,339	100,58
0,377	101,55
0,418	102,67
0,459	103,64
0,501	104,71
0,545	105,87
0,589	106,93
0,633	108,20
0,680	109,27
0,727	111,01
0,774	112,57
0,822	113,99
0,869	115,83
0,917	117,94
0,964	119,62
1,013	121,57
1,062	123,69
1,109	125,45
1,156	127,79
1,203	130,35
1,249	134,00
1,294	137,07
1,340	138,99
1,385	141,46
1,428	143,55
1,470	145,40
1,511	148,19
1,550	151,05
1,588	153,72
1,624	158,05
1,660	163,54
1,693	168,18
1,725	173,78
1,756	177,27
1,784	179,19
1,811	181,95
1,835	184,36
1,858	186,33
1,877	189,07
1,896	192,15
1,912	194,90
1,926	198,28
1,937	201,03
1,946	204,02
1,954	206,62
1,960	208,31
1,965	210,13
1,967	211,45
1,967	212,27
1,963	212,87
1,957	213,18
1,951	213,07
1,940	212,84
1,927	212,30
1,913	211,67
1,899	210,48
1,882	209,11
1,861	207,87
1,839	206,05
1,814	204,05
1,788	202,37
1,759	200,23
1,731	198,52
1,701	196,31
1,670	194,02
1,635	192,32
1,599	189,84
1,560	187,42
1,519	185,35
1,477	182,78
1,436	180,08
1,393	177,81
1,349	175,07
1,305	172,21
1,260	169,95
1,214	167,02
1,167	164,04
1,118	161,63
1,071	158,41
1,023	155,22
0,975	152,26
0,928	148,30
0,880	144,96
0,833	142,47
0,784	140,14
0,737	138,21
0,691	136,11
0,644	133,86
0,598	131,96
0,554	129,65
0,511	127,38
0,468	125,34
0,427	122,98
0,386	120,28
0,349	118,17
0,311	115,68
0,275	113,99
0,239	112,62
0,207	111,39
0,176	110,40
0,146	109,46
0,118	108,39
0,091	107,50
0,068	106,20
0,046	105,00
0,025	104,06
0,006	102,88
-0,011	101,83
-0,024	101,03
-0,035	99,85
-0,044	98,99
-0,052	98,19
-0,058	97,20
-0,063	96,92
-0,064	96,16
-0,064	95,65
-0,061	95,62
-0,058	95,53
-0,052	95,41
-0,044	95,34
-0,033	95,35
-0,019	95,37
-0,002	95,49
0,016	95,59
0,036	95,76
0,057	95,93
0,079	96,26
0,104	96,51
0,130	96,92
0,160	97,43
0,192	97,88
0,223	98,59
0,256	99,23
0,291	100,11
0,328	101,15
0,366	102,08
0,405	103,26
0,446	104,56
0,489	105,40
0,531	106,46
0,575	107,74
0,620	108,58
0,666	109,57
0,713	110,41
0,760	111,88
0,807	113,56
0,855	115,19
0,902	117,69
0,950	120,57
0,997	122,74
1,046	124,84
1,095	126,92
1,142	128,18
1,189	129,79
1,236	131,27
1,282	133,11
1,327	135,43
1,371	137,49
1,414	140,24
1,458	143,18
1,499	145,69
1,538	149,10
1,577	152,99
1,613	156,01
1,649	160,38
1,682	164,94
1,715	168,97
1,745	173,42
1,775	177,14
1,803	179,97
1,828	183,15
1,850	185,67
1,871	188,71
1,890	191,81
1,907	194,38
1,921	197,33
1,934	200,22
1,945	202,61
1,953	205,38
1,960	207,77
1,963	209,35
1,967	210,98
1,967	212,07
1,963	212,69
1,959	213,08
1,953	213,13
1,945	213,03
1,932	212,53
1,920	211,68
1,904	210,83
1,887	209,62
1,868	208,13
1,847	206,70
1,822	204,81
1,797	203,00
1,769	201,06
1,739	198,86
1,711	196,94
1,679	194,62
1,646	192,25
1,610	190,32
1,571	187,41
1,530	184,43
1,489	182,17
1,447	179,57
1,406	176,91
1,362	174,62
1,318	171,70
1,274	168,71
1,227	166,29
1,180	163,08
1,133	160,00
1,085	157,62
1,038	154,80
0,990	151,78
0,941	149,33
0,894	146,18
0,845	142,79
0,796	140,62
0,749	137,71
0,704	135,49
0,658	133,83
0,613	131,16
0,567	129,62
0,523	126,79
0,481	124,74
0,438	122,37
0,397	120,31
0,358	118,54
0,320	116,69
0,284	114,94
0,248	113,89
0,215	111,88
0,184	110,63
0,154	109,65
0,126	108,29
0,099	106,80
0,072	105,94
0,050	104,69
0,030	103,57
0,011	102,76
-0,006	101,82
-0,020	100,84
-0,033	100,13
-0,042	99,42
-0,050	98,70
-0,057	97,83
-0,063	97,21
-0,064	96,73
-0,064	96,17
-0,063	95,86
-0,058	95,72
-0,053	95,56
-0,046	95,56
-0,036	95,58
-0,024	95,68
-0,008	95,77
0,011	95,96
0,030	96,10
0,050	96,22
0,071	96,44
0,096	96,74
0,123	97,01
0,151	97,42
0,181	98,03
0,212	98,59
0,245	99,49
0,280	100,09
0,316	100,86
0,355	101,68
0,393	102,48
0,434	103,55
0,474	104,63
0,518	105,48
0,562	106,66
0,606	107,73
0,652	109,28
0,697	110,71
0,745	111,81
0,792	113,27
0,840	114,92
0,888	116,18
0,936	117,95
0,983	120,20
1,032	122,55
1,081	125,44
1,128	127,14
1,173	129,59
1,221	132,03
1,268	133,88
1,313	136,58
1,359	140,57
1,401	143,69
1,444	148,11
1,484	152,08
1,525	154,31
1,565	156,60
1,602	158,77
1,638	160,57
1,673	163,29
1,706	166,37
1,737	169,25
1,767	173,17
1,794	177,42
1,821	180,76
1,844	184,79
1,865	188,76
1,885	191,77
1,902	195,66
1,918	198,54
1,931	201,32
1,940	203,28
1,949	204,82
1,957	206,63
1,962	208,57
1,965	209,98
1,965	211,21
1,965	212,18
1,960	212,56
1,956	212,71
1,946	212,59
1,937	212,28
1,923	211,52
1,909	210,41
1,891	209,26
1,872	207,60
1,852	205,84
1,828	204,60
1,805	202,99
1,777	201,35
1,748	199,79
1,718	197,71
1,687	195,51
1,654	193,77
1,619	191,39
1,582	189,48
1,543	187,09
1,500	184,51
1,459	182,21
1,415	179,44
1,373	176,52
1,329	174,05
1,285	170,89
1,241	167,48
1,194	164,94
1,147	162,01
1,098	159,15
1,051	157,02
1,002	153,96
0,953	150,66
0,906	147,60
0,858	143,60
0,811	140,20
0,763	137,88
0,716	135,59
0,671	133,87
0,624	132,35
0,580	130,29
0,536	128,64
0,492	126,53
0,449	124,37
0,408	122,48
0,369	120,65
0,331	118,49
0,294	117,11
0,259	114,91
0,225	112,92
0,193	110,62
0,162	108,57
0,132	106,92
0,105	105,24
0,082	104,23
0,058	103,13
0,036	102,36
0,017	101,68
-0,002	100,98
-0,017	100,37
-0,030	99,59
-0,041	99,02
-0,049	98,34
-0,055	97,77
-0,061	97,25
-0,064	96,71
-0,064	96,40
-0,063	96,17
-0,060	96,00
-0,055	95,81
-0,049	95,71
-0,039	95,73
-0,027	95,80
-0,013	95,83
0,005	95,88
0,024	95,99
0,044	96,15
0,066	96,32
0,090	96,61
0,115	96,92
0,141	97,22
0,171	97,74
0,204	98,36
0,237	98,98
0,272	99,89
0,308	100,71
0,344	101,87
0,382	103,09
0,423	104,13
0,463	105,23
0,506	106,42
0,550	107,57
0,594	108,89
0,639	110,09
0,685	111,39
0,732	113,11
0,779	114,45
0,828	116,58
0,875	118,58
0,922	119,71
0,971	121,36
1,019	123,03
1,068	124,31
1,115	126,31
1,162	128,54
1,210	130,25
1,255	132,60
1,302	134,46
1,346	136,84
1,390	139,59
1,433	141,96
1,475	145,80
1,516	150,54
1,555	155,18
1,593	161,25
1,630	166,00
1,665	168,57
1,698	170,69
1,729	172,62
1,759	174,07
1,788	176,65
1,813	179,66
1,838	182,38
1,860	186,25
1,880	189,98
1,899	192,90
1,915	196,51
1,927	199,80
1,938	202,28
1,948	204,95
1,956	206,68
1,962	208,72
1,965	210,35
1,967	211,24
1,965	212,20
1,963	212,72
1,957	212,90
1,949	212,93
1,938	212,43
1,926	211,87
1,912	211,03
1,896	209,93
1,879	208,81
1,858	207,37
1,836	205,63
1,811	204,18
1,784	202,18
1,756	200,08
1,726	198,32
1,696	196,01
1,663	194,03
1,629	191,32
1,591	188,54
1,552	186,21
1,511	183,39
1,470	180,53
1,429	178,20
1,387	175,48
1,343	172,72
1,297	170,34
1,252	167,45
1,206	164,57
1,159	162,17
1,112	158,96
1,065	155,82
1,016	153,20
0,969	150,15
0,920	146,87
0,872	144,90
0,825	142,02
0,778	139,50
0,730	137,74
0,683	134,74
0,638	132,49
0,592	130,49
0,548	127,72
0,506	126,06
0,462	122,97
0,421	120,78
0,380	118,76
0,342	117,18
0,305	115,25
0,269	113,89
0,234	112,70
0,201	111,31
0,171	109,77
0,141	108,42
0,113	107,55
0,088	105,68
0,064	104,57
0,042	103,78
0,022	102,77
0,003	101,62
-0,013	100,99
-0,027	100,20
-0,038	99,57
-0,047	98,97
-0,053	98,31
-0,060	97,77
-0,063	97,21
-0,064	96,64
-0,064	96,26
-0,063	95,90
-0,057	95,59
-0,050	95,50
-0,041	95,44
-0,030	95,63
-0,016	95,76
0,000	96,04
0,017	96,24
0,038	96,57
0,058	96,92
0,082	97,15
0,107	97,44
0,135	97,67
0,163	97,91
0,195	98,30
0,228	98,74
0,261	99,06
0,297	99,62
0,333	100,35
0,371	101,06
0,412	101,99
0,452	102,82
0,495	103,99
0,539	105,28
0,583	106,38
0,627	108,06
0,672	109,64
0,719	111,08
0,767	112,95
0,814	114,42
0,861	116,07
0,909	118,26
0,958	120,18
1,007	122,15
1,054	124,43
1,103	126,06
1,150	128,14
1,195	130,35
1,243	132,30
1,288	135,63
1,334	138,73
1,378	143,12
1,422	147,50
1,464	150,34
1,505	153,27
1,544	155,46
1,582	157,73
1,619	161,26
1,656	164,94
1,689	167,44
1,720	170,74
1,751	173,68
1,780	176,00
1,806	179,23
1,832	183,18
1,854	186,80
1,874	190,93
1,893	194,04
1,910	196,51
1,924	199,39
1,935	201,63
1,946	204,06
1,954	205,91
1,960	207,29
1,963	208,80
1,965	210,39
1,967	211,47
1,963	212,51
1,959	213,33
1,951	213,66
1,942	213,50
1,931	212,98
1,916	212,20
1,901	210,71
1,885	209,18
1,865	207,60
1,843	205,57
1,819	203,53
1,792	201,93
1,764	200,04
1,734	198,27
1,704	196,64
1,674	194,44
1,640	192,61
1,602	190,31
1,563	187,74
1,524	185,69
1,481	183,08
1,440	180,35
1,398	178,11
1,356	175,19
1,310	172,13
1,266	169,62
1,219	166,28
1,172	163,11
1,125	160,38
1,078	157,26
1,029	153,93
0,982	151,11
0,933	147,14
0,884	143,38
0,837	140,76
0,789	138,04
0,741	135,28
0,696	133,68
0,650	131,46
0,605	129,39
0,561	127,82
0,515	125,88
0,473	124,66
0,430	122,95
0,391	120,99
0,352	119,21
0,314	117,12
0,278	115,67
0,243	113,84
0,210	111,89
0,179	110,83
0,148	109,65
0,121	108,22
0,094	106,87
0,069	105,08
0,047	103,54
0,027	102,97
0,008	102,07
-0,008	101,05
-0,024	100,39
-0,035	99,68
-0,044	99,24
-0,052	98,76
-0,058	98,26
-0,063	97,79
-0,064	97,18
-0,064	96,59
-0,063	96,21
-0,058	95,86
-0,052	95,48
-0,044	95,20
-0,033	94,97
-0,020	94,94
-0,005	94,92
0,014	95,00
0,033	95,18
0,053	95,44
0,075	95,84
0,101	96,19
0,127	96,67
0,157	97,23
0,187	97,74
0,218	98,45
0,251	99,02
0,286	99,81
0,324	100,66
0,361	101,42
0,401	102,46
0,441	103,62
0,482	104,58
0,526	105,78
0,570	107,23
0,616	108,09
0,661	109,35
0,707	110,46
0,754	112,10
0,801	113,41
0,848	114,66
0,897	116,31
0,946	118,08
0,993	119,54
1,041	121,69
1,090	124,41
1,137	127,23
1,184	130,93
1,230	133,83
1,275	137,36
1,321	139,47
1,367	141,14
1,411	142,97
1,453	144,85
1,494	146,86
1,533	149,72
1,572	153,68
1,610	157,59
1,645	163,04
1,679	168,83
1,712	172,86
1,744	177,04
1,772	179,59
1,800	180,94
1,825	182,60
1,849	184,70
1,869	186,74
1,888	189,84
1,905	193,60
1,921	196,81
1,932	200,21
1,943	202,75
1,953	205,56
1,959	208,10
1,963	209,67
1,967	211,04
1,967	211,73
1,965	211,99
1,960	212,18
1,953	212,23
1,945	212,28
1,934	212,25
1,921	211,84
1,905	211,24
1,888	209,91
1,869	208,24
1,849	206,67
1,825	204,46
1,799	202,34
1,770	200,62
1,742	198,64
1,712	196,59
1,681	194,85
1,648	192,68
1,612	190,44
1,574	188,51
1,535	185,98
1,494	183,84
1,451	181,23
1,409	178,46
1,365	176,25
1,321	173,25
1,277	170,44
1,232	168,16
1,184	165,39
1,137	162,60
1,090	160,14
1,041	156,70
0,993	152,62
0,944	149,04
0,897	144,92
0,850	140,98
0,801	138,57
0,754	136,06
0,707	134,47
0,661	132,81
0,616	131,50
0,570	130,19
0,526	128,49
0,484	126,37
0,441	123,76
0,401	121,69
0,361	119,74
0,324	118,13
0,287	116,46
0,253	114,95
0,220	112,94
0,187	110,43
0,157	108,71
0,127	106,77
0,101	104,67
0,075	103,61
0,053	102,21
0,033	101,33
0,014	101,08
-0,003	100,40
-0,019	99,89
-0,031	99,58
-0,042	99,28
-0,050	98,81
-0,057	98,22
-0,061	97,63
-0,064	97,21
-0,064	96,57
-0,063	96,07
-0,060	95,77
-0,053	95,53
-0,047	95,41
-0,036	95,18
-0,024	95,17
-0,009	95,38
0,008	95,62
0,028	95,81
0,049	96,05
0,071	96,43
0,094	96,77
0,119	97,10
0,148	97,57
0,179	98,03
0,210	98,74
0,243	99,51
0,278	100,13
0,314	101,07
0,352	102,18
0,390	103,04
0,430	104,17
0,473	105,42
0,515	106,53
0,559	107,83
0,603	109,27
0,649	110,47
0,694	112,02
0,741	113,38
0,789	115,18
0,837	116,48
0,884	117,58
0,933	118,93
0,980	120,37
1,029	121,78
1,078	124,13
1,125	126,10
1,172	128,56
1,219	131,17
1,264	132,99
1,310	135,35
1,354	137,80
1,398	139,83
1,442	142,87
1,483	146,70
1,524	150,66
1,563	155,79
1,601	159,71
1,637	162,24
1,671	165,12
1,704	167,91
1,736	170,26
1,766	173,48
1,794	177,03
1,819	179,78
1,843	183,77
1,865	187,84
1,883	190,85
1,901	194,66
1,916	197,26
1,929	200,25
1,940	203,03
1,949	204,89
1,957	207,13
1,962	208,90
1,965	210,15
1,967	211,43
1,965	212,24
1,962	212,72
1,956	212,98
1,948	212,96
1,937	212,68
1,924	211,99
1,910	211,09
1,893	209,98
1,876	208,60
1,855	207,20
1,832	205,48
1,806	203,51
1,780	201,88
1,750	199,76
1,720	197,48
1,689	195,78
1,657	193,44
1,623	191,06
1,585	189,09
1,546	186,63
1,505	183,83
1,462	181,28
1,418	178,01
1,376	174,45
1,334	171,65
1,290	168,71
1,244	166,23
1,197	164,29
1,150	161,34
1,103	158,01
1,054	155,33
1,007	151,65
0,958	149,19
0,909	145,75
0,862	142,93
0,815	140,37
0,767	137,65
0,721	135,06
0,674	133,02
0,628	130,39
0,583	127,90
0,539	126,66
0,495	123,84
0,452	121,59
0,412	119,67
0,372	117,41
0,335	115,74
0,297	113,84
0,261	112,14
0,228	110,83
0,195	109,73
0,165	108,64
0,135	107,31
0,108	106,45
0,083	105,00
0,060	104,10
0,038	102,78
0,017	101,77
0,000	100,66
-0,014	99,71
-0,028	99,08
-0,039	98,41
-0,047	97,97
-0,055	97,85
-0,060	97,45
-0,063	97,21
-0,064	97,07
-0,063	96,82
-0,060	96,55
-0,055	96,28
-0,049	96,01
-0,039	95,83
-0,028	95,61
-0,014	95,43
0,003	95,41
0,024	95,38
0,044	95,49
0,064	95,66
0,086	95,92
0,112	96,28
0,138	96,71
0,168	97,32
0,201	97,95
0,234	98,76
0,269	99,70
0,303	100,57
0,341	101,90
0,379	103,05
0,418	104,01
0,459	105,37
0,501	106,61
0,545	107,67
0,589	109,07
0,635	110,05
0,680	110,96
0,727	112,55
0,774	114,01
0,823	115,46
0,870	117,79
0,919	119,75
0,966	122,29
1,015	124,92
1,063	127,00
1,111	129,41
1,158	131,13
1,203	133,13
1,250	135,26
1,296	137,28
1,341	140,16
1,385	143,52
1,428	146,41
1,470	150,18
1,511	153,83
1,550	156,57
1,588	159,93
1,626	163,18
1,660	165,84
1,693	168,80
1,725	171,57
1,755	173,56
1,783	176,47
1,811	179,72
1,836	182,78
1,858	186,65
1,879	189,47
1,896	193,07
1,912	196,48
1,926	199,34
1,937	202,23
1,946	204,64
1,954	206,43
1,960	208,24
1,963	209,98
1,965	211,11
1,965	212,09
1,962	212,85
1,957	213,21
1,951	213,24
1,942	213,08
1,929	212,55
1,913	211,67
1,898	210,48
1,879	209,36
1,860	207,65
1,838	205,67
1,814	203,71
1,788	201,35
1,759	199,32
1,729	196,77
1,700	194,34
1,667	192,60
1,632	190,25
1,594	187,74
1,555	185,51
1,514	183,01
1,473	180,43
1,433	178,03
1,390	174,72
1,348	171,61
1,302	169,09
1,258	166,12
1,211	163,12
1,164	160,71
1,115	157,46
1,068	154,26
1,021	151,70
0,972	148,61
0,925	145,66
0,878	143,46
0,829	140,84
0,781	138,76
0,734	135,94
0,688	132,77
0,641	130,35
0,597	127,60
0,553	125,22
0,509	123,57
0,467	121,96
0,426	119,80
0,385	118,35
0,347	116,34
0,309	114,73
0,272	112,73
0,237	111,38
0,206	110,57
0,174	109,29
0,146	108,09
0,118	107,24
0,091	106,43
0,066	105,55
0,044	104,76
0,024	103,66
0,006	102,76
-0,009	101,68
-0,024	100,70
-0,035	100,01
-0,044	99,23
-0,052	98,48
-0,058	97,88
-0,063	97,18
-0,064	96,70
-0,064	96,24
-0,061	95,84
-0,058	95,63
-0,052	95,37
-0,044	95,15
-0,031	94,96
-0,017	94,87
-0,002	94,88
0,017	94,97
0,036	95,19
0,057	95,49
0,079	95,80
0,104	96,22
0,130	96,70
0,160	97,30
0,192	98,02
0,223	98,61
0,258	99,44
0,292	100,31
0,328	101,03
0,366	101,92
0,407	102,88
0,448	103,77
0,489	104,98
0,533	106,00
0,576	107,47
0,620	109,21
0,666	110,69
0,713	112,54
0,762	114,72
0,809	116,32
0,856	118,02
0,903	119,38
0,952	120,63
0,999	122,20
1,049	123,49
1,096	125,02
1,144	126,90
1,191	128,76
1,238	131,47
1,283	134,79
1,329	138,32
1,373	142,89
1,417	147,15
1,459	150,29
1,500	152,71
1,539	154,84
1,577	156,96
1,615	160,58
1,651	164,94
1,685	168,74
1,717	173,14
1,748	176,13
1,777	179,28
1,803	181,85
1,828	184,09
1,850	187,37
1,872	191,29
1,891	194,46
1,909	197,81
1,923	200,34
1,935	202,15
1,945	203,98
1,954	205,89
1,960	207,30
1,963	208,71
1,967	210,18
1,967	211,20
1,963	212,07
1,959	212,80
1,953	212,96
1,943	213,00
1,932	212,71
1,920	211,96
1,904	210,91
1,887	209,92
1,868	208,20
1,846	206,11
1,822	204,37
1,795	201,98
1,767	199,62
1,737	197,73
1,707	195,35
1,678	193,02
1,645	191,14
1,608	188,63
1,569	185,88
1,528	183,71
1,488	180,80
1,445	177,93
1,403	175,69
1,360	172,88
1,318	169,89
1,272	167,49
1,227	164,23
1,180	161,53
1,133	158,36
1,084	155,26
1,037	152,93
0,988	149,88
0,941	147,08
0,892	145,09
0,845	143,28
0,796	141,25
0,749	139,78
0,702	137,74
0,657	135,53
0,611	133,58
0,567	131,17
0,523	128,73
0,479	126,87
0,437	124,03
0,397	121,77
0,358	118,88
0,320	115,94
0,284	113,64
0,250	111,45
0,217	109,29
0,184	108,39
0,154	107,00
0,126	106,07
0,099	105,52
0,074	104,96
0,052	104,36
0,030	103,70
0,011	102,81
-0,006	102,22
-0,020	101,47
-0,033	100,58
-0,042	99,85
-0,052	98,95
-0,057	98,04
-0,061	97,46
-0,063	96,76
-0,064	96,25
-0,063	95,69
-0,060	95,25
-0,053	94,94
-0,046	94,70
-0,036	94,52
-0,024	94,49
-0,008	94,52
0,011	94,64
0,030	94,85
0,050	95,13
0,071	95,43
0,096	95,90
0,123	96,46
0,151	96,93
0,181	97,67
0,214	98,42
0,247	99,02
0,281	99,88
0,317	100,70
0,355	101,51
0,394	102,57
0,434	103,50
0,474	104,25
0,518	105,36
0,562	106,20
0,606	107,41
0,652	108,72
0,697	109,90
0,745	111,59
0,792	113,80
0,840	115,64
0,888	118,20
0,936	121,22
0,983	123,38
1,032	125,54
1,081	127,09
1,128	129,34
1,175	130,96
1,222	132,58
1,268	135,68
1,313	138,77
1,357	141,97
1,401	145,54
1,444	148,35
1,486	150,12
1,527	152,06
1,566	153,99
1,604	155,87
1,638	158,85
1,673	162,42
1,706	166,02
1,737	171,13
1,767	176,15
1,794	181,96
1,821	186,56
1,844	188,73
1,866	190,52
1,885	192,26
1,902	194,27
1,918	197,76
1,931	201,85
1,942	204,43
1,949	206,39
1,957	207,44
1,962	208,15
1,965	209,21
1,967	210,05
1,965	210,95
1,960	211,93
1,954	212,89
1,946	213,19
1,935	213,36
1,923	213,08
1,909	212,13
1,893	210,62
1,874	209,16
1,854	207,13
1,832	204,99
1,805	203,07
1,778	200,88
1,748	198,84
1,718	197,11
1,689	194,85
1,656	192,60
1,621	190,39
1,583	187,60
1,544	184,80
1,502	182,78
1,461	179,91
1,418	177,52
1,376	174,45
1,332	171,84
1,288	169,56
1,243	166,33
1,197	162,55
1,148	159,55
1,101	156,84
1,052	154,08
1,004	152,14
0,957	149,04
0,909	145,53
0,861	142,77
0,814	139,68
0,767	136,86
0,719	134,72
0,674	133,13
0,627	130,53
0,581	128,86
0,537	126,20
0,495	123,75
0,452	120,91
0,412	118,58
0,372	117,02
0,335	115,37
0,297	114,27
0,261	112,83
0,228	111,32
0,195	109,73
0,165	108,38
0,135	106,87
0,108	105,67
0,083	104,66
0,060	104,01
0,038	103,47
0,019	102,68
0,000	101,91
-0,016	101,39
-0,028	100,66
-0,039	99,93
-0,049	99,30
-0,055	98,51
-0,060	97,77
-0,063	97,23
-0,064	96,62
-0,063	96,23
-0,060	95,76
-0,055	95,38
-0,049	95,15
-0,039	94,98
-0,027	94,88
-0,013	94,89
0,005	94,92
0,022	95,13
0,042	95,32
0,063	95,64
0,086	95,96
0,112	96,43
0,141	97,04
0,171	97,58
0,203	98,32
0,236	99,03
0,269	99,65
0,305	100,57
0,341	101,53
0,379	102,39
0,419	103,45
0,460	104,41
0,503	105,84
0,547	107,29
0,591	108,51
0,636	110,17
0,682	111,84
0,729	113,15
0,776	114,48
0,823	115,87
0,870	117,11
0,919	118,61
0,968	119,84
1,015	121,48
1,063	123,73
1,111	126,13
1,158	129,60
1,205	133,33
1,252	136,42
1,297	139,92
1,343	142,68
1,387	143,92
1,429	145,81
1,472	148,38
1,511	150,97
1,550	155,43
1,588	159,33
1,626	164,17
1,660	167,99
1,693	170,38
1,726	173,07
1,756	175,93
1,784	178,53
1,811	182,34
1,835	186,44
1,857	189,26
1,877	192,00
1,896	194,41
1,913	196,06
1,926	198,50
1,938	201,41
1,948	203,88
1,956	206,31
1,960	208,32
1,965	209,63
1,965	211,08
1,965	212,01
1,963	212,86
1,959	213,26
1,951	213,30
1,940	212,99
1,929	212,44
1,915	211,67
1,899	210,42
1,880	209,09
1,861	207,61
1,839	205,74
1,814	203,62
1,788	201,78
1,759	199,66
1,729	197,62
1,700	196,19
1,668	194,09
1,634	191,87
1,596	190,11
1,557	187,84
1,517	185,90
1,477	183,20
1,434	180,53
1,392	178,42
1,348	175,57
1,304	172,73
1,258	170,43
1,211	167,50
1,166	164,47
1,117	162,14
1,070	159,19
1,023	156,43
0,975	154,20
0,927	151,42
0,878	148,67
0,829	146,54
0,781	143,76
0,734	141,15
0,688	138,92
0,642	136,39
0,598	133,39
0,554	130,96
0,511	127,29
0,467	124,32
0,426	121,14
0,386	117,86
0,346	116,32
0,309	114,28
0,273	112,78
0,239	112,14
0,206	110,97
0,174	110,06
0,146	108,83
0,118	107,78
0,091	106,42
0,068	105,14
0,044	103,78
0,024	102,81
0,005	102,12
-0,011	100,91
-0,024	100,13
-0,036	99,61
-0,046	99,04
-0,053	98,61
-0,058	97,93
-0,063	97,57
-0,064	97,20
-0,064	96,75
-0,061	96,48
-0,058	96,21
-0,052	95,94
-0,042	95,72
-0,031	95,67
-0,019	95,67
-0,002	95,71
0,016	95,76
0,035	95,93
0,055	96,11
0,079	96,42
0,104	96,76
0,132	97,21
0,160	97,71
0,192	98,16
0,223	98,82
0,256	99,59
0,291	100,27
0,328	101,17
0,366	102,21
0,405	103,12
0,446	104,58
0,489	105,57
0,531	107,04
0,575	108,22
0,620	109,24
0,664	110,61
0,712	111,99
0,759	112,97
0,806	114,93
0,855	116,88
0,902	118,71
0,950	120,34
0,999	122,03
1,048	123,50
1,095	125,21
1,142	126,75
1,189	129,87
1,235	133,09
1,280	136,22
1,327	139,95
1,371	143,60
1,415	146,23
1,458	148,82
1,499	150,93
1,538	152,61
1,576	154,78
1,613	157,12
1,649	159,32
1,684	162,65
1,715	166,20
1,747	169,43
1,775	173,54
1,803	177,66
1,828	180,92
1,850	185,29
1,872	188,61
1,890	192,26
1,907	195,85
1,921	198,33
1,934	201,22
1,945	203,74
1,953	205,66
1,959	207,65
1,963	209,50
1,967	210,70
1,967	211,97
1,965	212,93
1,960	213,43
1,954	213,58
1,945	213,45
1,932	213,11
1,920	212,30
1,904	211,22
1,887	210,09
1,868	208,36
1,847	207,06
1,824	205,02
1,795	203,13
1,769	201,34
1,740	199,13
1,711	197,12
1,681	195,19
1,646	192,95
1,610	190,60
1,571	188,68
1,530	186,21
1,489	183,67
1,448	181,59
1,406	178,91
1,363	176,10
1,319	173,95
1,274	171,18
1,228	168,14
1,181	165,47
1,134	161,71
1,087	158,35
1,038	154,12
0,991	150,16
0,942	147,28
0,895	144,09
0,847	141,45
0,800	139,69
0,752	137,55
0,705	135,35
0,660	133,70
0,614	130,97
0,569	128,39
0,525	126,09
0,481	123,26
0,440	121,60
0,399	119,42
0,361	117,67
0,324	116,28
0,286	114,63
0,251	112,92
0,217	111,53
0,185	110,56
0,156	109,04
0,127	107,61
0,099	106,41
0,075	105,46
0,052	103,97
0,031	102,64
0,013	102,03
-0,005	101,33
-0,020	100,29
-0,031	99,47
-0,042	99,11
-0,050	98,68
-0,057	98,02
-0,061	97,60
-0,064	97,18
-0,064	96,63
-0,063	96,20
-0,060	95,92
-0,053	95,71
-0,046	95,56
-0,036	95,46
-0,024	95,37
-0,008	95,39
0,009	95,46
0,028	95,63
0,049	95,74
0,069	96,02
0,094	96,30
0,121	96,56
0,149	97,02
0,179	97,51
0,210	98,02
0,243	98,73
0,278	99,56
0,314	100,39
0,352	101,43
0,391	102,39
0,430	103,32
0,473	104,61
0,515	105,73
0,559	107,08
0,603	108,59
0,649	109,97
0,696	111,62
0,743	113,50
0,790	114,97
0,837	116,85
0,884	118,25
0,931	119,49
0,980	121,09
1,029	122,30
1,078	123,85
1,125	125,97
1,172	128,11
1,217	131,46
1,264	135,44
1,310	139,15
1,356	143,30
1,400	145,83
1,442	147,50
1,483	149,17
1,522	150,87
1,561	152,62
1,601	154,89
1,637	157,89
1,671	160,95
1,703	165,90
1,734	170,89
1,764	177,74
1,792	183,55
1,819	186,17
1,843	188,15
1,865	189,61
1,883	190,95
1,901	192,86
1,916	195,23
1,929	197,46
1,940	200,44
1,949	203,65
1,957	206,01
1,963	208,70
1,967	211,02
1,967	212,28
1,965	213,38
1,962	213,92
1,956	213,88
1,946	213,63
1,937	213,03
1,924	212,31
1,909	211,23
1,893	210,17
1,876	208,74
1,855	207,01
1,832	205,47
1,806	203,24
1,780	200,79
1,750	198,70
1,722	196,24
1,690	193,76
1,659	191,98
1,623	189,67
1,585	187,35
1,546	185,57
1,505	183,36
1,464	181,16
1,422	179,41
1,379	177,13
1,335	175,12
1,290	172,44
1,244	169,32
1,199	166,99
1,151	163,86
1,104	160,97
1,056	158,40
1,008	154,90
0,961	150,48
0,913	146,94
0,864	142,51
0,815	138,95
0,768	136,66
0,721	134,50
0,675	132,81
0,630	131,55
0,586	130,03
0,540	128,44
0,498	126,56
0,454	124,16
0,413	122,46
0,374	120,17
0,336	118,34
0,298	117,10
0,262	115,35
0,229	113,69
0,196	112,37
0,165	110,66
0,137	109,50
0,108	108,03
0,083	106,30
0,060	104,93
0,039	103,66
0,019	102,61
0,002	101,70
-0,014	100,62
-0,028	99,69
-0,039	99,20
-0,049	98,75
-0,055	98,19
-0,061	97,51
-0,064	97,16
-0,064	96,93
-0,064	96,65
-0,061	96,27
-0,057	96,04
-0,050	95,91
-0,041	95,81
-0,028	95,76
-0,014	95,70
0,003	95,84
0,022	95,87
0,041	96,06
0,063	96,26
0,085	96,51
0,112	96,87
0,140	97,18
0,170	97,72
0,199	98,34
0,232	98,95
0,265	99,79
0,302	100,73
0,338	101,48
0,377	102,34
0,418	103,12
0,459	104,25
0,501	105,53
0,543	106,49
0,587	107,88
0,633	109,59
0,679	110,38
0,726	111,84
0,773	113,75
0,820	114,91
0,869	116,61
0,916	118,29
0,964	119,79
1,013	121,61
1,060	123,19
1,109	125,18
1,156	127,61
1,203	129,26
1,249	131,83
1,294	135,15
1,340	137,85
1,384	142,06
1,426	145,63
1,469	150,47
1,510	154,98
1,549	158,17
1,588	161,52
1,624	163,58
1,659	164,81
1,693	166,56
1,725	168,62
1,755	170,83
1,783	173,96
1,810	177,47
1,833	180,51
1,857	184,52
1,877	188,61
1,896	192,01
1,912	195,67
1,926	199,26
1,937	201,78
1,946	204,66
1,954	207,19
1,960	208,93
1,965	210,36
1,967	211,10
1,967	211,52
1,963	211,77
1,959	211,93
1,951	212,10
1,942	212,23
1,929	211,93
1,915	211,18
1,899	210,02
1,882	208,74
1,861	207,13
1,839	205,45
1,816	204,02
1,789	202,23
1,761	200,39
1,731	198,73
1,701	196,75
1,670	195,02
1,635	192,56
1,599	190,15
1,561	187,67
1,521	184,70
1,478	181,70
1,436	179,59
1,393	177,02
1,349	174,55
1,305	172,58
1,261	169,96
1,214	167,28
1,169	165,07
1,122	162,06
1,073	158,63
1,026	155,29
0,977	150,96
0,930	146,87
0,881	143,94
0,834	141,07
0,785	138,63
0,738	137,28
0,691	135,27
0,646	133,99
0,600	132,14
0,556	129,86
0,512	128,02
0,470	125,74
0,427	123,54
0,388	121,58
0,349	119,56
0,311	117,61
0,275	116,00
0,240	114,35
0,207	113,05
0,176	111,45
0,146	109,99
0,118	108,83
0,093	107,40
0,069	106,18
0,046	105,11
0,025	103,88
0,006	102,78
-0,009	102,01
-0,024	101,03
-0,035	100,04
-0,044	99,35
-0,052	98,71
-0,058	98,19
-0,063	97,58
-0,064	97,04
-0,066	96,73
-0,063	96,31
-0,058	96,00
-0,052	95,78
-0,042	95,55
-0,031	95,32
-0,019	95,22
-0,003	95,12
0,014	95,12
0,035	95,19
0,055	95,34
0,079	95,49
0,102	95,84
0,129	96,21
0,157	96,61
0,188	97,20
0,221	97,92
0,254	98,55
0,289	99,43
0,325	100,18
0,364	101,31
0,402	102,53
0,443	103,51
0,485	104,88
0,529	105,99
0,573	106,94
0,617	108,19
0,663	109,52
0,708	110,64
0,757	112,10
0,804	113,36
0,851	115,24
0,900	117,13
0,947	118,71
0,996	120,62
1,043	122,56
1,090	124,18
1,137	126,22
1,186	128,88
1,232	130,94
1,279	134,28
1,324	136,41
1,368	139,16
1,412	142,21
1,455	144,60
1,495	148,99
1,535	153,57
1,574	156,96
1,610	160,44
1,646	163,01
1,682	165,46
1,714	168,44
1,745	171,65
1,773	174,15
1,800	177,35
1,825	180,80
1,849	183,64
1,871	187,27
1,890	191,04
1,905	193,93
1,920	197,45
1,932	200,19
1,943	203,20
1,953	205,91
1,959	207,89
1,963	209,94
1,967	211,29
1,967	211,76
1,965	212,09
1,960	212,07
1,954	212,02
1,945	211,86
1,934	211,58
1,920	211,17
1,905	210,44
1,888	209,24
1,869	208,06
1,849	206,40
1,825	204,64
1,800	203,12
1,772	201,02
1,742	199,01
1,712	197,25
1,681	194,98
1,648	193,13
1,612	190,78
1,572	188,21
1,533	186,19
1,492	183,68
1,451	181,07
1,409	178,85
1,365	176,03
1,321	173,26
1,277	170,92
1,230	168,05
1,184	164,74
1,137	161,83
1,090	158,56
1,041	155,67
0,993	153,95
0,946	151,55
0,897	149,21
0,850	147,29
0,801	144,38
0,754	141,72
0,708	137,21
0,661	132,87
0,616	129,56
0,572	126,08
0,528	123,52
0,484	121,92
0,441	120,53
0,401	119,34
0,363	118,28
0,325	117,02
0,287	115,39
0,253	114,19
0,218	112,04
0,187	110,84
0,156	108,65
0,127	106,73
0,101	105,50
0,077	103,91
0,053	102,75
0,033	102,18
0,014	101,58
-0,003	101,08
-0,019	100,55
-0,033	100,05
-0,042	99,74
-0,050	99,48
-0,057	99,03
-0,061	98,50
-0,064	97,81
-0,064	97,10
-0,063	96,72
-0,060	96,19
-0,053	95,89
-0,046	95,53
-0,036	95,20
-0,024	95,02
-0,009	94,90
0,008	94,96
0,027	95,16
0,047	95,32
0,069	95,62
0,093	95,89
0,119	96,42
0,148	97,13
0,178	97,73
0,209	98,66
0,242	99,32
0,276	100,09
0,313	101,03
0,350	101,78
0,388	102,69
0,429	103,60
0,470	104,30
0,512	105,30
0,558	106,53
0,602	107,85
0,647	109,50
0,693	110,98
0,740	113,20
0,787	115,43
0,834	117,20
0,883	119,36
0,930	121,02
0,979	122,09
1,027	123,53
1,074	124,82
1,123	125,85
1,170	127,41
1,216	128,94
1,261	131,55
1,308	135,16
1,354	138,78
1,396	144,14
1,440	149,60
1,481	153,04
1,522	155,62
1,560	157,36
1,599	158,63
1,635	160,44
1,670	162,47
1,703	164,61
1,734	167,66
1,764	171,22
1,792	174,29
1,819	178,88
1,841	184,25
1,863	188,70
1,883	193,85
1,901	197,54
1,916	199,21
1,929	200,81
1,940	202,08
1,949	203,76
1,957	205,51
1,963	207,07
1,965	209,12
1,967	211,27
1,965	212,53
1,962	213,78
1,956	214,32
1,948	214,24
1,938	213,62
1,926	212,59
1,912	211,50
1,894	209,94
1,876	208,21
1,855	206,89
1,832	205,23
1,806	203,63
1,780	202,17
1,753	200,17
1,723	198,67
1,693	196,43
1,660	194,08
1,624	192,15
1,585	189,47
1,546	186,90
1,505	184,78
1,466	182,14
1,423	179,55
1,381	177,38
1,338	174,60
1,293	171,39
1,247	168,29
1,200	163,97
1,153	159,70
1,106	156,72
1,057	153,63
1,010	150,98
0,961	148,99
0,914	146,90
0,866	145,44
0,818	143,26
0,770	140,80
0,724	138,88
0,677	136,56
0,631	134,23
0,587	132,55
0,542	129,98
0,500	126,65
0,456	124,04
0,416	121,54
0,377	119,59
0,338	118,15
0,300	116,59
0,264	115,81
0,231	114,59
0,198	112,78
0,167	111,13
0,137	109,84
0,110	107,64
0,085	105,85
0,061	103,99
0,039	102,23
0,019	101,10
0,002	99,89
-0,014	99,49
-0,028	98,94
-0,039	98,33
-0,047	98,05
-0,053	98,01
-0,060	97,88
-0,063	97,57
-0,064	97,30
-0,064	96,98
-0,061	96,70
-0,057	96,36
-0,049	96,02
-0,041	95,83
-0,028	95,69
-0,014	95,56
0,002	95,45
0,020	95,48
0,041	95,61
0,061	95,81
0,085	96,15
0,110	96,49
0,138	96,97
0,168	97,53
0,198	98,03
0,231	98,78
0,265	99,41
0,302	100,39
0,338	101,52
0,375	102,45
0,415	103,66
0,456	104,96
0,498	106,01
0,542	107,37
0,586	108,75
0,631	109,89
0,677	111,38
0,724	112,54
0,771	114,14
0,818	115,86
0,867	117,39
0,914	119,37
0,963	121,14
1,012	122,45
1,059	124,08
1,107	125,69
1,153	127,20
1,200	129,48
1,247	131,22
1,293	133,48
1,338	135,82
1,382	137,86
1,425	140,74
1,467	143,72
1,508	146,21
1,547	149,34
1,587	152,88
1,623	155,84
1,659	159,53
1,692	163,66
1,723	167,03
1,753	171,14
1,781	175,45
1,810	179,29
1,835	184,54
1,857	188,88
1,877	191,34
1,896	194,15
1,912	196,85
1,924	198,80
1,937	201,13
1,946	202,99
1,954	205,23
1,962	207,48
1,965	209,06
1,967	210,90
1,967	212,34
1,963	213,15
1,957	213,74
1,949	213,77
1,942	213,41
1,929	212,69
1,916	211,58
1,901	210,57
1,883	209,04
1,863	207,37
1,841	206,11
1,816	204,22
1,789	202,23
1,761	200,68
1,733	198,62
1,703	196,88
1,671	194,63
1,637	192,31
1,599	190,31
1,560	187,93
1,519	185,39
1,478	183,26
1,437	180,58
1,395	177,84
1,351	175,59
1,307	172,70
1,263	169,45
1,216	166,63
1,170	162,61
1,122	158,58
1,074	155,51
1,026	152,21
0,977	149,45
0,930	147,49
0,883	144,82
0,834	142,31
0,787	140,11
0,738	137,37
0,693	134,88
0,647	132,17
0,600	129,37
0,558	127,01
0,514	124,38
0,470	122,56
0,429	121,35
0,390	119,59
0,350	118,32
0,313	117,15
0,276	114,87
0,242	113,10
0,207	110,90
0,176	108,72
0,146	107,28
0,119	105,79
0,093	105,13
0,069	104,62
0,047	103,92
0,027	103,34
0,008	102,90
-0,009	102,30
-0,024	101,73
-0,036	100,74
-0,044	99,75
-0,052	98,93
-0,058	98,01
-0,063	97,30
-0,064	96,82
-0,064	96,24
-0,063	95,83
-0,058	95,58
-0,052	95,36
-0,044	95,28
-0,033	95,25
-0,020	95,27
-0,003	95,34
0,014	95,45
0,035	95,61
0,055	95,83
0,077	96,22
0,101	96,65
0,129	97,11
0,157	97,68
0,188	98,26
0,220	99,06
0,254	99,84
0,289	100,51
0,325	101,49
0,363	102,34
0,402	103,05
0,443	104,03
0,485	105,03
0,528	105,87
0,572	106,88
0,616	107,76
0,661	109,08
0,708	110,41
0,756	111,78
0,803	114,11
0,851	116,64
0,898	118,95
0,947	122,00
0,994	125,00
1,043	127,19
1,092	129,41
1,139	130,83
1,184	132,32
1,232	133,53
1,279	134,82
1,324	136,31
1,368	138,39
1,412	140,66
1,453	144,82
1,494	150,03
1,533	154,69
1,572	160,13
1,610	164,65
1,646	167,27
1,681	169,23
1,714	170,95
1,744	172,48
1,773	174,72
1,800	176,85
1,825	179,94
1,849	183,37
1,869	186,42
1,890	190,29
1,907	194,06
1,921	197,00
1,934	200,38
1,945	203,56
1,953	205,60
1,959	207,91
1,963	209,71
1,965	211,00
1,967	212,19
1,965	213,10
1,960	213,44
1,953	213,66
1,945	213,35
1,934	212,86
1,921	212,09
1,905	211,04
1,890	209,82
1,869	208,28
1,849	206,90
1,825	205,06
1,799	203,12
1,772	201,60
1,744	199,45
1,714	197,40
1,682	195,41
1,648	193,01
1,612	190,54
1,574	188,50
1,533	185,93
1,492	183,10
1,451	180,85
1,409	178,29
1,367	175,58
1,323	173,42
1,277	170,81
1,232	168,12
1,184	166,02
1,137	163,36
1,090	160,50
1,043	158,10
0,994	154,57
0,947	151,20
0,898	146,77
0,850	142,48
0,801	139,58
0,754	136,48
0,708	133,80
0,663	132,09
0,617	130,00
0,572	128,07
0,528	126,77
0,484	125,20
0,441	123,35
0,402	121,84
0,363	119,67
0,325	118,16
0,287	116,49
0,253	114,60
0,220	113,28
0,187	111,57
0,157	109,93
0,127	108,82
0,101	107,50
0,075	106,26
0,053	105,40
0,033	104,41
0,013	103,44
-0,003	102,13
-0,019	101,18
-0,031	100,59
-0,042	99,79
-0,050	99,01
-0,057	98,44
-0,061	97,92
-0,064	97,50
-0,064	97,14
-0,063	96,69
-0,060	96,31
-0,053	96,07
-0,046	95,78
-0,036	95,60
-0,024	95,50
-0,009	95,41
0,008	95,41
0,027	95,51
0,047	95,65
0,069	95,90
0,093	96,21
0,119	96,61
0,148	96,93
0,178	97,48
0,207	97,98
0,240	98,62
0,276	99,28
0,313	99,97
0,350	100,86
0,390	101,92
0,429	102,91
0,470	104,32
0,514	105,88
0,556	106,83
0,600	108,09
0,646	109,18
0,693	110,42
0,740	111,65
0,787	112,66
0,834	114,35
0,881	116,15
0,930	117,49
0,979	119,41
1,027	121,62
1,074	123,18
1,122	125,27
1,169	127,06
1,216	129,38
1,261	131,73
1,307	134,23
1,352	137,70
1,396	142,53
1,439	146,76
1,480	152,05
1,521	156,78
1,560	159,74
1,598	162,11
1,635	163,62
1,670	164,82
1,701	166,54
1,733	168,83
1,762	171,03
1,791	174,53
1,817	178,32
1,841	181,65
1,863	185,92
1,883	189,78
1,901	193,85
1,916	197,49
1,929	200,19
1,940	203,15
1,951	205,60
1,957	207,22
1,963	208,78
1,965	210,15
1,967	211,03
1,965	212,03
1,962	212,68
1,956	213,08
1,948	213,31
1,937	213,26
1,924	212,92
1,910	212,03
1,894	210,65
1,877	209,33
1,857	207,44
1,833	205,28
1,808	203,64
1,781	201,42
1,751	199,73
1,723	197,59
1,692	195,47
1,660	193,89
1,626	191,60
1,588	189,20
1,549	187,28
1,508	184,78
1,466	182,09
1,423	179,88
1,379	177,24
1,337	174,42
1,293	172,14
1,247	169,32
1,202	166,35
1,155	163,97
1,106	160,56
1,059	156,57
1,010	153,10
0,963	149,16
0,914	145,59
0,866	143,10
0,818	140,45
0,771	138,27
0,724	136,08
0,679	133,91
0,633	132,11
0,587	129,73
0,543	127,61
0,500	125,34
0,457	122,70
0,416	120,47
0,377	118,69
0,339	116,42
0,302	114,59
0,265	113,20
0,231	111,31
0,198	110,32
0,167	109,14
0,138	107,54
0,112	107,06
0,086	106,01
0,063	104,94
0,041	104,06
0,020	102,95
0,003	101,68
-0,014	101,07
-0,028	100,10
-0,039	99,30
-0,047	98,36
-0,055	97,52
-0,060	97,21
-0,063	96,89
-0,064	96,45
-0,064	96,07
-0,061	95,79
-0,057	95,69
-0,050	95,65
-0,041	95,62
-0,028	95,53
-0,014	95,51
0,002	95,55
0,020	95,62
0,041	95,80
0,061	96,08
0,083	96,32
0,108	96,65
0,137	97,11
0,167	97,50
0,198	98,16
0,231	98,76
0,264	99,59
0,300	100,43
0,336	101,14
0,375	102,39
0,415	103,65
0,456	104,58
0,498	105,93
0,540	107,35
0,584	108,57
0,630	109,98
0,675	111,24
0,724	112,85
0,771	114,57
0,818	116,14
0,866	118,06
0,913	120,15
0,961	121,85
1,010	124,19
1,059	126,56
1,106	128,26
1,153	130,37
1,200	131,61
1,246	133,08
1,291	134,75
1,337	136,18
1,381	138,29
1,425	140,78
1,467	143,11
1,508	146,75
1,547	151,55
1,585	156,19
1,623	162,70
1,657	168,45
1,692	171,30
1,723	173,63
1,753	175,53
1,781	177,07
1,808	179,15
1,833	181,75
1,855	184,10
1,876	187,43
1,894	191,04
1,910	193,99
1,924	197,90
1,937	200,52
1,946	203,90
1,954	206,67
1,960	208,53
1,965	210,39
1,967	211,67
1,967	212,59
1,963	213,08
1,959	213,41
1,951	213,27
1,942	213,08
1,929	212,35
1,916	211,60
1,901	210,51
1,883	209,02
1,863	207,68
1,841	205,88
1,817	204,08
1,791	202,49
1,764	200,48
1,734	198,53
1,704	196,77
1,673	194,64
1,637	192,73
1,599	190,36
1,560	187,96
1,521	185,86
1,480	183,15
1,439	180,31
1,396	178,12
1,354	175,30
1,310	172,27
1,264	169,49
1,217	165,98
1,170	162,65
1,123	160,17
1,076	157,17
1,027	154,45
0,980	152,29
0,933	149,49
0,884	147,24
0,836	144,34
0,789	141,64
0,740	139,10
0,694	136,88
0,649	134,44
0,603	132,45
0,559	130,11
0,515	127,57
0,471	125,68
0,430	123,03
0,390	120,72
0,352	119,24
0,314	117,34
0,276	115,90
0,242	114,31
0,209	112,82
0,178	111,55
0,148	109,76
0,119	108,08
0,094	106,91
0,071	105,09
0,047	103,69
0,027	102,50
0,008	101,18
-0,009	100,31
-0,024	99,28
-0,035	98,47
-0,044	98,05
-0,052	97,67
-0,058	97,42
-0,063	97,25
-0,064	97,05
-0,066	96,91
-0,063	96,81
-0,058	96,71
-0,052	96,58
-0,044	96,43
-0,033	96,28
-0,020	96,20
-0,005	96,17
0,014	96,17
0,033	96,22
0,053	96,32
0,075	96,51
0,099	96,69
0,127	96,98
0,156	97,37
0,187	97,75
0,218	98,21
0,251	98,70
0,286	99,39
0,324	100,22
0,360	100,99
0,399	102,10
0,440	103,44
0,482	104,74
0,526	106,41
0,569	108,35
0,614	109,90
0,660	111,60
0,707	113,38
0,754	114,51
0,801	115,60
0,848	116,63
0,895	117,86
0,944	118,97
0,991	120,05
1,040	121,81
1,089	124,03
1,136	126,45
1,183	129,60
1,228	131,64
1,274	134,38
1,319	136,69
1,365	138,90
1,409	141,68
1,450	144,34
1,492	146,73
1,532	149,78
1,571	152,77
1,608	155,32
1,645	158,73
1,679	162,39
1,711	165,57
1,742	169,59
1,770	173,87
1,799	177,11
1,824	181,22
1,847	185,27
1,869	188,35
1,888	192,09
1,905	195,13
1,920	198,74
1,932	201,55
1,943	203,27
1,953	205,24
1,959	207,27
1,963	208,62
1,967	210,28
1,967	211,69
1,965	212,58
1,960	213,34
1,954	213,58
1,945	213,40
1,934	212,93
1,921	211,93
1,907	210,98
1,890	209,54
1,871	207,99
1,850	206,73
1,827	204,85
1,802	203,48
1,775	201,45
1,745	199,42
1,717	197,75
1,684	195,60
1,649	193,23
1,613	191,28
1,576	188,69
1,536	186,07
1,497	183,92
1,456	181,22
1,414	178,33
1,371	175,68
1,326	172,29
1,280	169,22
1,235	167,22
1,188	164,53
1,142	161,60
1,095	159,18
1,048	155,66
0,999	152,02
0,950	149,06
0,902	145,54
0,853	143,00
0,806	140,06
0,759	137,24
0,713	135,33
0,668	133,08
0,620	130,57
0,576	128,81
0,533	126,21
0,489	124,18
0,446	122,37
0,407	120,80
0,368	118,87
0,328	116,88
0,291	114,70
0,256	113,17
0,223	111,36
0,190	110,26
0,160	109,11
0,132	107,78
0,104	106,88
0,079	105,92
0,057	104,52
0,035	103,78
0,016	102,89
-0,003	101,61
-0,017	100,90
-0,030	99,99
-0,041	99,27
-0,049	98,66
-0,057	97,97
-0,061	97,39
-0,064	97,20
-0,064	96,91
-0,063	96,62
-0,060	96,40
-0,055	96,14
-0,047	96,00
-0,038	95,87
-0,025	95,73
-0,009	95,70
0,006	95,65
0,024	95,71
0,044	95,78
0,066	95,95
0,090	96,17
0,116	96,48
0,145	96,83
0,174	97,21
0,206	97,75
0,237	98,43
0,272	99,06
0,308	99,99
0,346	101,02
0,383	101,98
0,424	103,40
0,465	105,00
0,507	106,18
0,551	107,89
0,595	109,57
0,641	110,90
0,686	112,41
0,734	113,54
0,781	115,09
0,828	116,67
0,877	118,18
0,924	120,14
0,972	121,70
1,021	122,96
1,070	124,71
1,117	126,31
1,162	127,73
1,210	129,74
1,257	131,72
1,302	134,57
1,348	138,68
1,392	142,42
1,434	147,36
1,477	152,05
1,516	155,03
1,555	158,34
1,593	160,62
1,630	162,23
1,665	164,18
1,698	166,37
1,729	168,49
1,761	171,61
1,788	175,28
1,814	178,22
1,838	182,17
1,860	185,37
1,880	189,45
1,899	193,46
1,913	196,30
1,927	199,71
1,938	202,82
1,949	204,93
1,957	207,12
1,962	208,95
1,965	210,14
1,967	211,15
1,965	212,09
1,962	212,49
1,956	212,93
1,949	212,82
1,940	212,73
1,927	212,30
1,915	211,57
1,898	210,53
1,879	209,11
1,857	207,41
1,835	205,89
1,810	203,88
1,784	202,19
1,758	200,04
1,728	197,89
1,698	196,02
1,665	193,75
1,629	191,43
1,591	189,51
1,552	187,08
1,511	184,57
1,472	182,47
1,429	179,85
1,387	177,09
1,345	174,69
1,299	171,43
1,253	167,98
1,208	165,10
1,161	161,32
1,112	157,89
1,065	155,40
1,016	152,65
0,969	149,93
0,920	147,73
0,873	144,78
0,825	141,71
0,778	139,23
0,730	136,13
0,685	133,89
0,639	131,27
0,594	128,94
0,548	126,92
0,504	124,68
0,462	122,56
0,421	120,80
0,382	118,73
0,344	116,63
0,306	115,72
0,270	114,09
0,236	112,63
0,203	111,70
0,171	110,18
0,143	108,88
0,115	107,21
0,090	105,66
0,064	104,30
0,042	102,91
0,022	102,06
0,005	101,33
-0,011	100,57
-0,025	100,17
-0,036	99,55
-0,046	98,90
-0,053	98,40
-0,060	97,85
-0,063	97,34
-0,064	96,94
-0,064	96,47
-0,061	96,08
-0,058	95,84
-0,050	95,69
-0,042	95,48
-0,030	95,41
-0,017	95,32
-0,002	95,35
0,017	95,48
0,036	95,74
0,058	95,91
0,080	96,24
0,105	96,61
0,134	97,01
0,162	97,61
0,193	98,19
0,226	98,93
0,259	99,65
0,295	100,33
0,331	101,21
0,369	102,12
0,408	102,95
0,449	104,05
0,492	105,18
0,536	106,34
0,580	107,97
0,624	109,27
0,669	111,03
0,716	112,45
0,763	113,62
0,811	115,09
0,858	116,50
0,906	117,69
0,955	119,62
1,002	122,37
1,051	124,74
1,098	127,99
1,145	130,17
1,192	132,28
1,239	134,22
1,285	135,52
1,330	137,11
1,376	139,51
1,418	142,01
1,461	146,00
1,500	151,29
1,541	155,87
1,579	160,90
1,616	164,91
1,652	167,15
1,685	169,01
1,717	170,61
1,748	171,98
1,777	174,39
1,805	177,10
1,830	180,91
1,854	184,99
1,874	188,31
1,891	192,17
1,909	195,80
1,921	198,44
1,934	201,50
1,945	204,20
1,953	206,19
1,960	208,35
1,965	209,86
1,967	210,65
1,967	211,34
1,963	211,89
1,959	212,24
1,953	212,51
1,943	212,64
1,932	212,30
