#Absolutdruck 1 vs Winkelposition, Messreihe #2
#Winkelposition ( rad )	Absolutdruck 1 ( kPa )
-1,682	109,89
-1,703	109,06
-1,728	108,24
-1,750	107,31
-1,772	106,42
-1,792	105,80
-1,811	105,00
-1,830	104,31
-1,849	103,76
-1,866	103,11
-1,882	102,47
-1,898	101,98
-1,913	101,42
-1,927	100,98
-1,938	100,52
-1,949	99,99
-1,960	99,60
-1,970	99,27
-1,979	98,84
-1,989	98,57
-1,995	98,33
-2,001	98,05
-2,006	97,84
-2,009	97,56
-2,012	97,41
-2,014	97,24
-2,015	97,15
-2,015	97,10
-2,014	97,02
-2,012	96,95
-2,011	96,92
-2,006	96,87
-2,001	96,86
-1,995	96,89
-1,989	96,88
-1,981	96,94
-1,971	97,02
-1,960	97,15
-1,949	97,27
-1,938	97,44
-1,926	97,63
-1,912	97,83
-1,898	98,04
-1,882	98,33
-1,866	98,62
-1,849	98,95
-1,830	99,34
-1,811	99,68
-1,792	100,12
-1,770	100,46
-1,750	100,93
-1,728	101,44
-1,706	101,91
-1,682	102,45
-1,657	103,13
-1,632	103,68
-1,605	104,31
-1,580	104,86
-1,554	105,67
-1,525	106,38
-1,499	107,03
-1,470	107,85
-1,440	108,72
-1,411	109,43
-1,381	110,38
-1,351	111,40
-1,319	112,24
-1,290	113,32
-1,258	114,51
-1,225	115,44
-1,194	116,68
-1,162	117,67
-1,129	118,95
-1,098	120,22
-1,065	121,31
-1,034	122,60
-1,002	123,99
-0,969	125,21
-0,936	126,73
-0,903	127,97
-0,870	129,66
-0,839	131,32
-0,807	132,68
-0,778	134,41
-0,746	136,14
-0,715	137,59
-0,683	139,48
-0,653	141,39
-0,622	143,00
-0,592	145,00
-0,564	147,08
-0,536	148,68
-0,509	150,68
-0,481	152,68
-0,454	154,27
-0,427	156,32
-0,402	157,92
-0,377	159,97
-0,352	162,09
-0,328	163,76
-0,305	165,90
-0,284	168,07
-0,262	169,64
-0,242	171,65
-0,223	173,52
-0,203	174,94
-0,184	176,83
-0,167	178,67
-0,149	180,21
-0,134	181,97
-0,118	183,74
-0,104	185,10
-0,091	186,64
-0,079	188,17
-0,068	189,26
-0,057	190,62
-0,046	191,93
-0,036	192,97
-0,028	194,23
-0,022	195,18
-0,016	196,25
-0,009	197,22
-0,005	197,80
-0,002	198,45
0,002	199,11
0,003	199,57
0,005	200,06
0,006	200,46
0,006	200,58
0,005	200,83
0,002	200,90
0,000	200,86
-0,005	200,77
-0,009	200,61
-0,016	200,36
-0,022	200,00
-0,030	199,46
-0,038	199,01
-0,047	198,31
-0,057	197,80
-0,068	197,01
-0,080	196,18
-0,091	195,41
-0,104	194,46
-0,118	193,37
-0,134	192,49
-0,151	191,37
-0,170	190,04
-0,187	189,01
-0,204	187,77
-0,223	186,31
-0,243	185,29
-0,264	183,67
-0,286	182,21
-0,309	180,94
-0,331	179,36
-0,357	177,95
-0,380	176,29
-0,404	174,48
-0,430	173,08
-0,456	171,34
-0,484	169,56
-0,512	168,17
-0,540	166,34
-0,569	164,43
-0,598	162,87
-0,627	161,05
-0,657	159,10
-0,686	157,60
-0,718	155,70
-0,748	153,89
-0,779	152,40
-0,812	150,43
-0,844	148,51
-0,877	146,96
-0,908	145,01
-0,941	143,54
-0,974	141,63
-1,005	139,87
-1,038	138,42
-1,071	136,66
-1,103	134,91
-1,137	133,51
-1,170	131,77
-1,202	130,12
-1,233	128,77
-1,266	127,15
-1,296	125,57
-1,327	124,37
-1,359	122,79
-1,389	121,70
-1,418	120,24
-1,448	118,94
-1,478	117,91
-1,506	116,77
-1,535	115,59
-1,561	114,66
-1,588	113,45
-1,615	112,34
-1,640	111,45
-1,665	110,40
-1,689	109,55
-1,712	108,51
-1,736	107,62
-1,758	106,93
-1,780	106,06
-1,800	105,33
-1,819	104,72
-1,836	104,02
-1,855	103,35
-1,872	102,82
-1,888	102,18
-1,904	101,56
-1,918	101,15
-1,931	100,62
-1,942	100,22
-1,953	99,82
-1,963	99,39
-1,974	99,11
-1,984	98,72
-1,990	98,37
-1,996	98,12
-2,003	97,81
-2,006	97,60
-2,009	97,39
-2,012	97,25
-2,014	97,04
-2,014	96,92
-2,015	96,82
-2,014	96,74
-2,012	96,64
-2,007	96,66
-2,004	96,66
-2,000	96,68
-1,993	96,66
-1,985	96,79
-1,978	96,92
-1,968	97,02
-1,957	97,12
-1,946	97,29
-1,934	97,45
-1,921	97,60
-1,907	97,84
-1,893	98,01
-1,877	98,33
-1,860	98,65
-1,843	98,95
-1,824	99,37
-1,805	99,66
-1,784	100,13
-1,764	100,62
-1,742	101,05
-1,720	101,58
-1,698	102,15
-1,673	102,59
-1,649	103,22
-1,623	103,90
-1,598	104,50
-1,571	105,17
-1,543	105,78
-1,516	106,57
-1,488	107,36
-1,459	108,03
-1,431	108,90
-1,401	109,84
-1,370	110,63
-1,340	111,64
-1,310	112,72
-1,279	113,63
-1,247	114,71
-1,216	115,69
-1,183	116,93
-1,150	118,19
-1,118	119,18
-1,087	120,45
-1,054	121,82
-1,023	122,83
-0,990	124,31
-0,957	125,79
-0,924	127,06
-0,892	128,63
-0,859	129,91
-0,828	131,62
-0,796	133,38
-0,765	134,76
-0,734	136,51
-0,704	138,36
-0,672	139,85
-0,641	141,84
-0,611	143,88
-0,583	145,54
-0,554	147,57
-0,526	149,58
-0,500	151,15
-0,471	153,10
-0,445	154,64
-0,418	156,66
-0,393	158,79
-0,368	160,39
-0,344	162,53
-0,320	164,73
-0,298	166,49
-0,276	168,45
-0,256	170,58
-0,236	172,13
-0,215	174,01
-0,195	175,78
-0,176	177,32
-0,159	179,17
-0,143	180,97
-0,127	182,41
-0,113	184,13
-0,099	185,76
-0,086	187,18
-0,074	188,57
-0,063	189,73
-0,052	191,13
-0,041	192,49
-0,033	193,44
-0,025	194,63
-0,019	195,67
-0,013	196,44
-0,008	197,29
-0,003	198,09
0,000	198,61
0,003	199,25
0,005	199,68
0,006	200,04
0,006	200,46
0,006	200,73
0,005	200,85
0,002	200,98
-0,002	200,94
-0,006	200,97
-0,011	200,78
-0,017	200,33
-0,024	200,01
-0,031	199,50
-0,039	198,94
-0,050	198,28
-0,061	197,47
-0,072	196,86
-0,083	196,00
-0,096	194,98
-0,108	194,17
-0,124	193,11
-0,140	192,08
-0,157	191,10
-0,174	189,85
-0,193	188,57
-0,210	187,48
-0,229	186,19
-0,250	184,69
-0,272	183,42
-0,294	181,95
-0,317	180,55
-0,339	178,98
-0,363	177,37
-0,386	176,04
-0,412	174,22
-0,438	172,50
-0,465	171,06
-0,493	169,30
-0,520	167,57
-0,550	166,07
-0,578	164,21
-0,606	162,37
-0,636	160,84
-0,666	158,96
-0,696	157,01
-0,727	155,48
-0,759	153,58
-0,790	151,68
-0,822	150,11
-0,853	148,09
-0,886	146,30
-0,917	144,86
-0,950	142,98
-0,983	141,49
-1,015	139,68
-1,048	137,92
-1,081	136,49
-1,114	134,78
-1,147	133,05
-1,180	131,61
-1,211	129,93
-1,243	128,33
-1,274	127,03
-1,305	125,42
-1,337	123,87
-1,368	122,73
-1,398	121,26
-1,428	120,24
-1,458	118,89
-1,488	117,61
-1,516	116,67
-1,543	115,49
-1,569	114,33
-1,596	113,44
-1,623	112,30
-1,648	111,19
-1,671	110,31
-1,695	109,31
-1,720	108,58
-1,742	107,67
-1,766	106,81
-1,786	106,17
-1,805	105,33
-1,824	104,57
-1,843	104,00
-1,860	103,31
-1,877	102,66
-1,894	102,12
-1,909	101,53
-1,923	101,07
-1,935	100,57
-1,946	100,08
-1,957	99,74
-1,968	99,32
-1,978	98,93
-1,985	98,66
-1,993	98,32
-2,000	98,02
-2,004	97,78
-2,007	97,54
-2,011	97,41
-2,012	97,16
-2,014	97,02
-2,015	96,94
-2,015	96,87
-2,014	96,78
-2,011	96,76
-2,007	96,70
-2,003	96,73
-1,996	96,76
-1,990	96,85
-1,982	96,95
-1,974	97,04
-1,965	97,13
-1,954	97,20
-1,943	97,38
-1,931	97,51
-1,916	97,69
-1,902	97,89
-1,887	98,14
-1,871	98,38
-1,855	98,76
-1,838	99,11
-1,819	99,44
-1,799	99,89
-1,778	100,27
-1,756	100,70
-1,736	101,21
-1,714	101,66
-1,690	102,26
-1,665	102,87
-1,640	103,40
-1,615	104,04
-1,588	104,79
-1,561	105,33
-1,535	106,15
-1,506	106,73
-1,480	107,54
-1,451	108,39
-1,422	109,14
-1,392	110,04
-1,360	111,04
-1,330	111,84
-1,301	112,94
-1,269	114,11
-1,236	115,01
-1,205	116,22
-1,172	117,23
-1,140	118,52
-1,109	119,82
-1,078	120,84
-1,045	122,18
-1,012	123,57
-0,979	124,73
-0,946	126,23
-0,914	127,78
-0,881	129,00
-0,850	130,63
-0,818	132,03
-0,787	133,80
-0,756	135,45
-0,724	136,90
-0,693	138,81
-0,663	140,76
-0,631	142,29
-0,602	144,34
-0,573	146,39
-0,545	148,05
-0,518	150,09
-0,490	152,14
-0,463	153,61
-0,437	155,54
-0,410	157,45
-0,385	159,20
-0,360	161,40
-0,336	163,48
-0,313	165,23
-0,291	167,29
-0,270	169,32
-0,250	170,92
-0,229	172,89
-0,209	174,29
-0,188	176,18
-0,171	178,04
-0,154	179,64
-0,138	181,54
-0,124	183,31
-0,110	184,66
-0,096	186,16
-0,083	187,72
-0,071	188,84
-0,060	190,27
-0,049	191,76
-0,039	192,80
-0,031	193,98
-0,024	195,02
-0,017	195,84
-0,011	196,69
-0,006	197,56
-0,003	198,17
0,000	198,96
0,003	199,38
0,005	200,00
0,006	200,26
0,006	200,52
0,005	200,85
0,003	201,01
0,000	201,08
-0,003	200,92
-0,008	200,79
-0,014	200,53
-0,020	200,19
-0,027	199,69
-0,035	199,33
-0,044	198,68
-0,053	197,99
-0,064	197,40
-0,075	196,51
-0,086	195,63
-0,099	194,90
-0,113	193,82
-0,130	192,67
-0,148	191,78
-0,165	190,62
-0,182	189,55
-0,199	188,15
-0,217	186,92
-0,237	185,65
-0,258	184,29
-0,280	182,76
-0,303	181,49
-0,325	179,90
-0,349	178,34
-0,372	177,00
-0,397	175,26
-0,423	173,52
-0,449	172,09
-0,476	170,19
-0,503	168,45
-0,531	166,94
-0,559	165,13
-0,589	163,29
-0,619	161,85
-0,649	159,90
-0,679	158,38
-0,708	156,46
-0,738	154,58
-0,770	153,18
-0,801	151,11
-0,834	149,16
-0,866	147,61
-0,898	145,71
-0,931	143,81
-0,963	142,43
-0,996	140,60
-1,029	138,80
-1,060	137,31
-1,093	135,50
-1,126	133,75
-1,159	132,38
-1,192	130,63
-1,224	129,37
-1,255	127,70
-1,286	126,24
-1,318	124,94
-1,349	123,49
-1,379	122,06
-1,411	120,92
-1,440	119,60
-1,469	118,25
-1,499	117,30
-1,527	115,98
-1,554	115,02
-1,580	113,88
-1,605	112,73
-1,632	111,80
-1,657	110,75
-1,681	109,78
-1,704	109,03
-1,728	108,13
-1,751	107,24
-1,773	106,53
-1,792	105,73
-1,813	105,01
-1,832	104,27
-1,849	103,57
-1,866	103,03
-1,883	102,39
-1,899	101,80
-1,913	101,34
-1,927	100,75
-1,938	100,28
-1,949	99,88
-1,960	99,42
-1,971	99,07
-1,981	98,69
-1,989	98,33
-1,995	98,12
-2,001	97,82
-2,006	97,56
-2,009	97,41
-2,011	97,19
-2,012	97,04
-2,014	96,91
-2,015	96,75
-2,014	96,68
-2,012	96,59
-2,011	96,56
-2,006	96,54
-2,001	96,60
-1,995	96,67
-1,987	96,70
-1,979	96,82
-1,970	96,91
-1,960	97,02
-1,951	97,15
-1,938	97,29
-1,926	97,50
-1,912	97,75
-1,898	97,95
-1,882	98,35
-1,866	98,66
-1,849	98,97
-1,830	99,27
-1,811	99,71
-1,791	100,00
-1,770	100,41
-1,750	100,82
-1,728	101,27
-1,704	101,83
-1,681	102,29
-1,657	102,95
-1,632	103,61
-1,605	104,15
-1,580	104,87
-1,552	105,63
-1,525	106,28
-1,497	107,04
-1,469	107,70
-1,440	108,58
-1,411	109,49
-1,381	110,23
-1,351	111,24
-1,319	112,30
-1,290	113,19
-1,258	114,31
-1,225	115,44
-1,194	116,49
-1,161	117,67
-1,129	118,73
-1,098	120,01
-1,065	121,36
-1,034	122,49
-1,001	123,85
-0,968	125,33
-0,936	126,55
-0,903	128,09
-0,870	129,70
-0,839	131,06
-0,807	132,72
-0,776	134,14
-0,745	135,96
-0,715	137,77
-0,683	139,25
-0,652	141,19
-0,622	143,20
-0,592	144,80
-0,564	146,94
-0,536	149,04
-0,507	150,54
-0,481	152,45
-0,454	154,40
-0,427	156,00
-0,401	158,10
-0,375	160,28
-0,352	161,98
-0,328	164,10
-0,306	166,21
-0,284	167,79
-0,262	169,79
-0,242	171,33
-0,221	173,16
-0,203	175,03
-0,184	176,52
-0,167	178,47
-0,149	180,38
-0,134	181,90
-0,119	183,70
-0,104	185,25
-0,091	186,63
-0,079	188,01
-0,068	189,47
-0,057	190,63
-0,046	191,90
-0,036	193,16
-0,028	194,04
-0,022	195,14
-0,016	196,21
-0,009	196,95
-0,006	197,78
-0,002	198,40
0,002	199,14
0,003	199,62
0,005	200,04
0,006	200,47
0,005	200,65
0,005	200,81
0,002	200,88
-0,002	200,92
-0,005	200,77
-0,009	200,53
-0,016	200,29
-0,022	199,88
-0,030	199,39
-0,038	198,90
-0,047	198,30
-0,058	197,60
-0,068	196,88
-0,080	196,16
-0,091	195,18
-0,104	194,34
-0,118	193,40
-0,134	192,29
-0,151	191,35
-0,170	190,20
-0,187	188,86
-0,204	187,75
-0,223	186,49
-0,242	184,99
-0,264	183,79
-0,286	182,27
-0,309	180,64
-0,333	179,33
-0,357	177,72
-0,382	175,95
-0,407	174,60
-0,432	172,88
-0,459	171,13
-0,485	169,70
-0,512	167,89
-0,540	166,14
-0,569	164,48
-0,598	162,68
-0,628	161,17
-0,658	159,28
-0,688	157,41
-0,719	155,86
-0,749	153,95
-0,781	152,08
-0,812	150,48
-0,844	148,47
-0,877	146,65
-0,908	145,10
-0,941	143,32
-0,974	141,56
-1,007	140,04
-1,038	138,29
-1,071	136,38
-1,104	135,02
-1,137	133,23
-1,170	131,52
-1,203	130,16
-1,235	128,53
-1,266	127,27
-1,297	125,77
-1,327	124,25
-1,359	123,06
-1,389	121,59
-1,420	120,18
-1,450	119,07
-1,478	117,79
-1,508	116,51
-1,535	115,54
-1,561	114,38
-1,588	113,56
-1,615	112,42
-1,640	111,33
-1,663	110,54
-1,689	109,45
-1,712	108,55
-1,736	107,74
-1,758	106,83
-1,780	106,03
-1,800	105,38
-1,819	104,70
-1,836	104,10
-1,854	103,39
-1,871	102,75
-1,888	102,24
-1,904	101,63
-1,918	101,04
-1,932	100,61
-1,943	100,10
-1,954	99,69
-1,965	99,32
-1,974	98,93
-1,982	98,66
-1,990	98,37
-1,996	98,04
-2,003	97,81
-2,007	97,60
-2,009	97,37
-2,012	97,22
-2,014	97,01
-2,014	96,87
-2,014	96,80
-2,014	96,71
-2,012	96,66
-2,009	96,69
-2,004	96,62
-1,998	96,66
-1,992	96,71
-1,985	96,73
-1,976	96,80
-1,968	96,94
-1,957	97,10
-1,946	97,24
-1,934	97,46
-1,921	97,65
-1,907	97,89
-1,891	98,13
-1,877	98,36
-1,860	98,67
-1,843	99,02
-1,824	99,28
-1,805	99,68
-1,784	100,11
-1,764	100,48
-1,742	100,93
-1,720	101,33
-1,696	101,91
-1,673	102,50
-1,649	103,04
-1,623	103,71
-1,598	104,43
-1,569	104,98
-1,543	105,83
-1,516	106,56
-1,489	107,26
-1,461	108,08
-1,431	108,76
-1,401	109,67
-1,371	110,65
-1,340	111,39
-1,310	112,43
-1,279	113,52
-1,247	114,56
-1,216	115,66
-1,183	116,88
-1,151	117,95
-1,120	119,22
-1,089	120,28
-1,056	121,64
-1,024	123,00
-0,991	124,17
-0,958	125,60
-0,925	127,09
-0,892	128,36
-0,861	129,93
-0,829	131,68
-0,798	133,08
-0,767	134,86
-0,735	136,24
-0,705	138,03
-0,674	139,92
-0,642	141,56
-0,613	143,55
-0,583	145,54
-0,554	147,35
-0,528	149,44
-0,500	151,42
-0,473	153,01
-0,446	154,94
-0,419	156,93
-0,393	158,51
-0,368	160,49
-0,344	162,55
-0,322	164,28
-0,300	166,49
-0,278	168,66
-0,258	170,33
-0,236	172,32
-0,217	174,05
-0,196	175,57
-0,178	177,46
-0,160	179,04
-0,145	180,91
-0,129	182,63
-0,115	184,02
-0,101	185,66
-0,088	187,16
-0,075	188,36
-0,064	189,72
-0,053	191,17
-0,042	192,28
-0,033	193,52
-0,025	194,65
-0,019	195,47
-0,014	196,47
-0,009	197,35
-0,005	198,02
0,000	198,65
0,002	199,13
0,005	199,67
0,006	200,05
0,006	200,32
0,006	200,69
0,003	200,83
0,002	200,84
-0,002	200,89
-0,006	200,77
-0,013	200,62
-0,017	200,35
-0,025	199,90
-0,031	199,59
-0,041	198,97
-0,050	198,10
-0,061	197,59
-0,072	196,77
-0,083	195,86
-0,096	195,17
-0,110	194,08
-0,124	193,24
-0,140	192,10
-0,156	190,88
-0,173	189,96
-0,192	188,57
-0,212	187,31
-0,231	186,17
-0,251	184,76
-0,272	183,17
-0,294	181,96
-0,316	180,36
-0,339	178,74
-0,363	177,39
-0,388	175,65
-0,413	173,93
-0,440	172,62
-0,467	170,78
-0,493	169,07
-0,522	167,55
-0,550	165,81
-0,578	164,23
-0,608	162,32
-0,638	160,40
-0,668	158,86
-0,697	156,94
-0,727	155,11
-0,759	153,62
-0,790	151,64
-0,823	149,69
-0,855	148,18
-0,886	146,22
-0,919	144,39
-0,952	142,95
-0,983	141,14
-1,016	139,32
-1,049	137,88
-1,082	136,06
-1,115	134,26
-1,147	132,90
-1,180	131,17
-1,213	129,82
-1,244	128,16
-1,275	126,57
-1,307	125,32
-1,338	123,82
-1,370	122,35
-1,400	121,27
-1,429	119,90
-1,459	118,53
-1,488	117,53
-1,516	116,30
-1,543	115,35
-1,569	114,21
-1,598	113,04
-1,623	112,14
-1,648	111,09
-1,673	110,09
-1,696	109,24
-1,718	108,34
-1,740	107,38
-1,762	106,66
-1,784	105,90
-1,805	105,20
-1,824	104,44
-1,843	103,77
-1,860	103,23
-1,877	102,52
-1,893	101,87
-1,907	101,37
-1,921	100,77
-1,935	100,29
-1,946	99,86
-1,957	99,41
-1,967	99,15
-1,976	98,78
-1,985	98,42
-1,992	98,22
-1,998	97,91
-2,004	97,62
-2,007	97,42
-2,011	97,17
-2,012	96,99
-2,014	96,80
-2,014	96,72
-2,014	96,62
-2,014	96,52
-2,011	96,51
-2,007	96,52
-2,003	96,57
-1,996	96,62
-1,990	96,69
-1,982	96,73
-1,974	96,79
-1,965	96,92
-1,954	97,05
-1,943	97,19
-1,931	97,35
-1,916	97,55
-1,902	97,76
-1,887	98,04
-1,872	98,35
-1,855	98,63
-1,838	99,00
-1,819	99,34
-1,800	99,69
-1,778	100,14
-1,758	100,62
-1,736	100,99
-1,714	101,58
-1,690	102,06
-1,667	102,67
-1,641	103,33
-1,615	103,84
-1,590	104,55
-1,563	105,29
-1,535	105,87
-1,508	106,67
-1,480	107,46
-1,451	108,13
-1,422	109,06
-1,392	109,81
-1,362	110,79
-1,330	111,85
-1,301	112,70
-1,269	113,83
-1,238	114,99
-1,206	115,99
-1,173	117,17
-1,142	118,49
-1,109	119,45
-1,078	120,80
-1,045	121,85
-1,013	123,22
-0,980	124,65
-0,947	125,85
-0,916	127,39
-0,883	129,01
-0,851	130,30
-0,818	132,00
-0,787	133,68
-0,756	135,10
-0,726	136,92
-0,694	138,44
-0,663	140,34
-0,633	142,35
-0,603	144,02
-0,575	146,01
-0,547	148,02
-0,520	149,69
-0,492	151,61
-0,463	153,59
-0,437	155,27
-0,410	157,28
-0,385	159,32
-0,361	160,95
-0,338	163,11
-0,316	165,20
-0,292	166,95
-0,272	169,11
-0,250	171,20
-0,229	172,73
-0,210	174,65
-0,192	176,06
-0,173	177,89
-0,156	179,71
-0,140	181,27
-0,124	182,94
-0,110	184,61
-0,096	185,94
-0,083	187,43
-0,072	188,92
-0,060	189,94
-0,050	191,37
-0,041	192,69
-0,031	193,75
-0,024	194,91
-0,017	195,87
-0,011	196,74
-0,006	197,59
-0,003	198,30
0,000	198,87
0,003	199,48
0,005	199,83
0,005	200,32
0,005	200,58
0,005	200,70
0,003	200,82
0,002	200,92
-0,002	200,81
-0,006	200,70
-0,013	200,43
-0,019	200,17
-0,025	199,70
-0,033	199,24
-0,042	198,66
-0,052	198,05
-0,063	197,30
-0,074	196,65
-0,086	195,69
-0,099	194,72
-0,113	193,84
-0,127	192,78
-0,145	191,87
-0,162	190,63
-0,179	189,42
-0,196	188,34
-0,215	187,02
-0,234	185,72
-0,256	184,52
-0,278	183,02
-0,300	181,40
-0,324	180,17
-0,346	178,55
-0,369	176,80
-0,394	175,34
-0,419	173,68
-0,446	171,90
-0,473	170,56
-0,500	168,76
-0,529	166,90
-0,558	165,39
-0,586	163,49
-0,616	161,62
-0,646	160,08
-0,675	158,23
-0,705	156,74
-0,735	154,89
-0,767	153,03
-0,800	151,42
-0,831	149,41
-0,862	147,45
-0,895	145,90
-0,927	144,01
-0,960	142,16
-0,993	140,74
-1,024	138,91
-1,057	137,11
-1,090	135,71
-1,123	133,96
-1,156	132,23
-1,189	130,82
-1,221	129,23
-1,253	127,92
-1,285	126,37
-1,315	124,79
-1,346	123,67
-1,376	122,12
-1,407	120,77
-1,437	119,68
-1,467	118,30
-1,495	117,07
-1,524	116,10
-1,550	114,93
-1,579	113,78
-1,604	112,89
-1,630	111,83
-1,654	110,95
-1,679	109,94
-1,703	109,03
-1,726	108,16
-1,748	107,33
-1,770	106,52
-1,791	105,87
-1,811	105,14
-1,830	104,37
-1,847	103,84
-1,865	103,13
-1,882	102,61
-1,898	101,96
-1,912	101,35
-1,926	100,89
-1,938	100,36
-1,949	99,90
-1,960	99,61
-1,970	99,27
-1,979	98,94
-1,987	98,69
-1,995	98,37
-2,001	98,09
-2,006	97,85
-2,009	97,58
-2,012	97,42
-2,014	97,23
-2,015	97,10
-2,015	97,01
-2,014	96,90
-2,012	96,86
-2,009	96,81
-2,006	96,85
-2,001	96,87
-1,995	96,91
-1,989	97,02
-1,981	97,11
-1,973	97,25
-1,962	97,37
-1,951	97,49
-1,938	97,64
-1,926	97,83
-1,913	98,00
-1,899	98,28
-1,883	98,55
-1,868	98,87
-1,850	99,24
-1,833	99,56
-1,813	100,00
-1,794	100,40
-1,773	100,82
-1,751	101,25
-1,729	101,73
-1,707	102,15
-1,684	102,69
-1,660	103,17
-1,635	103,80
-1,608	104,49
-1,582	105,00
-1,554	105,74
-1,527	106,46
-1,500	107,08
-1,472	107,90
-1,444	108,83
-1,414	109,53
-1,384	110,49
-1,354	111,29
-1,323	112,34
-1,291	113,44
-1,260	114,35
-1,228	115,47
-1,197	116,69
-1,164	117,65
-1,133	118,94
-1,101	120,21
-1,068	121,31
-1,037	122,62
-1,004	123,80
-0,971	125,16
-0,939	126,67
-0,906	127,93
-0,875	129,53
-0,842	131,14
-0,812	132,54
-0,781	134,29
-0,749	136,12
-0,718	137,52
-0,686	139,45
-0,655	141,39
-0,625	143,00
-0,595	145,02
-0,567	146,73
-0,539	148,75
-0,512	150,67
-0,484	152,19
-0,457	154,07
-0,430	156,05
-0,404	157,71
-0,379	159,87
-0,355	162,06
-0,331	163,90
-0,309	166,06
-0,287	168,08
-0,265	169,78
-0,245	171,59
-0,225	173,46
-0,204	174,98
-0,187	176,81
-0,168	178,77
-0,151	180,34
-0,135	182,14
-0,121	183,85
-0,107	185,12
-0,093	186,69
-0,080	187,80
-0,069	189,41
-0,058	190,81
-0,047	191,91
-0,038	193,17
-0,030	194,35
-0,022	195,18
-0,016	196,25
-0,011	197,20
-0,006	197,83
-0,002	198,61
0,002	199,21
0,003	199,70
0,005	200,20
0,005	200,50
0,005	200,70
0,005	200,97
0,003	200,99
0,000	201,09
-0,003	200,96
-0,008	200,81
-0,014	200,54
-0,020	200,18
-0,028	199,88
-0,035	199,21
-0,044	198,56
-0,053	198,07
-0,064	197,19
-0,077	196,41
-0,090	195,73
-0,104	194,62
-0,118	193,60
-0,134	192,79
-0,148	191,66
-0,165	190,41
-0,182	189,34
-0,199	188,00
-0,220	186,93
-0,240	185,47
-0,262	183,98
-0,283	182,71
-0,306	181,18
-0,328	179,56
-0,350	178,19
-0,375	176,54
-0,399	174,95
-0,426	173,68
-0,452	171,82
-0,479	169,98
-0,507	168,46
-0,536	166,64
-0,564	164,77
-0,592	163,31
-0,622	161,49
-0,652	159,67
-0,682	158,07
-0,712	156,15
-0,743	154,69
-0,774	152,76
-0,806	150,78
-0,837	149,14
-0,870	147,16
-0,902	145,26
-0,935	143,83
-0,968	142,06
-0,999	140,28
-1,032	138,90
-1,063	137,09
-1,098	135,37
-1,131	133,95
-1,164	132,15
-1,195	130,47
-1,228	129,12
-1,260	127,46
-1,290	126,25
-1,321	124,64
-1,352	123,17
-1,382	122,04
-1,414	120,62
-1,444	119,31
-1,472	118,26
-1,502	116,99
-1,528	115,79
-1,557	114,87
-1,583	113,69
-1,610	112,80
-1,635	111,74
-1,660	110,65
-1,685	109,80
-1,709	108,83
-1,731	107,90
-1,753	107,20
-1,775	106,35
-1,795	105,59
-1,814	104,96
-1,833	104,20
-1,850	103,50
-1,868	102,95
-1,885	102,36
-1,901	101,86
-1,915	101,28
-1,929	100,79
-1,940	100,41
-1,951	99,99
-1,962	99,60
-1,971	99,26
-1,981	98,95
-1,989	98,66
-1,995	98,29
-2,001	98,03
-2,006	97,79
-2,009	97,57
-2,012	97,36
-2,014	97,19
-2,014	97,08
-2,015	96,94
-2,014	96,84
-2,012	96,83
-2,009	96,73
-2,006	96,71
-2,001	96,73
-1,995	96,76
-1,987	96,83
-1,979	96,89
-1,970	96,94
-1,960	97,11
-1,949	97,27
-1,937	97,34
-1,924	97,51
-1,910	97,74
-1,896	97,96
-1,882	98,30
-1,865	98,51
-1,847	98,85
-1,828	99,17
-1,810	99,53
-1,789	99,96
-1,769	100,40
-1,748	100,74
-1,726	101,25
-1,703	101,83
-1,679	102,27
-1,654	102,91
-1,629	103,47
-1,604	104,14
-1,577	104,85
-1,550	105,50
-1,524	106,19
-1,495	107,02
-1,467	107,70
-1,437	108,56
-1,407	109,45
-1,378	110,25
-1,348	111,25
-1,316	112,08
-1,285	113,19
-1,255	114,36
-1,224	115,28
-1,191	116,47
-1,159	117,75
-1,128	118,75
-1,095	120,08
-1,062	121,35
-1,030	122,50
-0,997	123,91
-0,964	125,06
-0,933	126,60
-0,900	128,12
-0,869	129,45
-0,837	131,03
-0,806	132,79
-0,774	134,15
-0,743	135,93
-0,712	137,77
-0,680	139,29
-0,649	141,19
-0,619	143,23
-0,591	144,91
-0,562	146,92
-0,534	148,63
-0,506	150,59
-0,479	152,54
-0,451	154,13
-0,424	156,15
-0,399	158,23
-0,374	159,83
-0,350	162,01
-0,327	164,11
-0,305	165,79
-0,283	167,98
-0,261	170,09
-0,240	171,60
-0,220	173,49
-0,201	175,32
-0,182	176,72
-0,165	178,63
-0,148	180,52
-0,132	181,90
-0,118	183,71
-0,104	185,35
-0,090	186,50
-0,079	187,99
-0,066	189,50
-0,057	190,63
-0,046	192,12
-0,036	193,09
-0,028	194,24
-0,020	195,24
-0,014	196,14
-0,009	197,01
-0,005	197,85
-0,002	198,44
0,002	199,08
0,005	199,63
0,005	199,90
0,006	200,24
0,005	200,55
0,005	200,71
0,002	200,89
-0,002	200,82
-0,005	200,62
-0,009	200,51
-0,016	200,23
-0,022	199,87
-0,028	199,38
-0,036	198,97
-0,047	198,34
-0,057	197,66
-0,068	196,94
-0,080	196,06
-0,093	195,13
-0,105	194,44
-0,121	193,25
-0,135	192,24
-0,152	191,21
-0,168	189,94
-0,187	188,64
-0,204	187,53
-0,225	186,23
-0,243	185,15
-0,265	183,58
-0,287	181,99
-0,311	180,72
-0,333	179,15
-0,357	177,57
-0,380	176,25
-0,405	174,55
-0,430	172,86
-0,459	171,38
-0,485	169,65
-0,514	167,76
-0,542	166,35
-0,570	164,50
-0,598	162,71
-0,628	161,18
-0,658	159,30
-0,688	157,33
-0,719	155,79
-0,751	153,89
-0,782	152,38
-0,814	150,43
-0,845	148,51
-0,878	146,99
-0,909	145,10
-0,942	143,20
-0,975	141,85
-1,007	139,99
-1,040	138,19
-1,073	136,82
-1,104	135,03
-1,137	133,20
-1,170	131,81
-1,203	130,09
-1,235	128,41
-1,266	127,15
-1,297	125,58
-1,329	124,32
-1,360	122,86
-1,390	121,45
-1,420	120,40
-1,450	119,01
-1,480	117,69
-1,508	116,70
-1,536	115,51
-1,563	114,26
-1,590	113,34
-1,616	112,19
-1,641	111,39
-1,665	110,32
-1,690	109,31
-1,714	108,60
-1,737	107,65
-1,759	106,76
-1,780	106,05
-1,800	105,24
-1,819	104,52
-1,838	103,91
-1,855	103,24
-1,872	102,72
-1,888	102,03
-1,904	101,46
-1,918	101,00
-1,931	100,47
-1,943	99,91
-1,954	99,57
-1,965	99,16
-1,974	98,74
-1,982	98,42
-1,990	98,06
-1,996	97,82
-2,003	97,54
-2,007	97,33
-2,009	97,12
-2,012	96,96
-2,014	96,77
-2,014	96,68
-2,014	96,59
-2,014	96,51
-2,011	96,46
-2,007	96,39
-2,004	96,42
-2,000	96,42
-1,993	96,48
-1,985	96,56
-1,978	96,65
-1,968	96,76
-1,957	96,87
-1,946	97,05
-1,934	97,21
-1,920	97,42
-1,907	97,62
-1,893	97,94
-1,877	98,17
-1,861	98,50
-1,843	98,80
-1,824	99,18
-1,805	99,65
-1,784	99,94
-1,764	100,43
-1,742	100,93
-1,720	101,40
-1,698	101,92
-1,673	102,52
-1,648	103,00
-1,623	103,76
-1,596	104,27
-1,569	104,97
-1,544	105,68
-1,516	106,33
-1,489	107,11
-1,459	107,98
-1,429	108,62
-1,400	109,55
-1,370	110,53
-1,340	111,39
-1,310	112,49
-1,279	113,31
-1,247	114,55
-1,214	115,71
-1,183	116,72
-1,151	117,98
-1,118	119,21
-1,087	120,19
-1,054	121,54
-1,023	122,94
-0,990	124,09
-0,957	125,62
-0,924	126,84
-0,892	128,41
-0,861	130,03
-0,829	131,38
-0,798	133,14
-0,765	134,81
-0,734	136,27
-0,702	138,06
-0,672	139,96
-0,641	141,59
-0,613	143,52
-0,583	145,62
-0,556	147,27
-0,528	149,37
-0,500	150,98
-0,471	152,95
-0,445	154,85
-0,418	156,43
-0,393	158,52
-0,368	160,67
-0,344	162,40
-0,320	164,65
-0,298	166,75
-0,276	168,40
-0,256	170,28
-0,236	172,08
-0,215	173,63
-0,196	175,44
-0,178	177,48
-0,160	179,07
-0,145	181,00
-0,129	182,81
-0,113	184,09
-0,101	185,62
-0,086	186,79
-0,075	188,40
-0,063	189,89
-0,053	191,13
-0,042	192,55
-0,035	193,65
-0,027	194,48
-0,019	195,51
-0,013	196,51
-0,008	197,24
-0,005	198,07
0,000	198,84
0,003	199,21
0,005	199,77
0,006	200,23
0,006	200,51
0,005	200,87
0,003	200,94
0,002	201,00
-0,002	201,04
-0,006	200,78
-0,011	200,63
-0,017	200,33
-0,024	199,89
-0,031	199,36
-0,039	198,89
-0,049	198,25
-0,060	197,62
-0,071	196,81
-0,083	196,17
-0,096	195,17
-0,108	194,14
-0,124	193,30
-0,140	192,21
-0,157	190,97
-0,174	189,98
-0,192	188,69
-0,210	187,57
-0,229	186,24
-0,251	184,75
-0,272	183,49
-0,294	182,00
-0,317	180,39
-0,339	179,10
-0,363	177,59
-0,386	175,85
-0,413	174,45
-0,438	172,67
-0,467	170,94
-0,493	169,53
-0,522	167,65
-0,550	165,78
-0,578	164,29
-0,608	162,44
-0,636	160,58
-0,666	158,99
-0,697	157,12
-0,727	155,22
-0,759	153,72
-0,790	151,77
-0,823	150,18
-0,855	148,30
-0,888	146,35
-0,919	144,84
-0,952	142,96
-0,983	141,16
-1,016	139,65
-1,049	137,86
-1,082	136,14
-1,115	134,67
-1,147	132,92
-1,180	131,27
-1,213	129,93
-1,244	128,27
-1,275	126,70
-1,307	125,39
-1,338	123,90
-1,368	122,70
-1,400	121,30
-1,429	119,94
-1,459	118,88
-1,488	117,60
-1,517	116,41
-1,544	115,49
-1,571	114,30
-1,598	113,16
-1,623	112,17
-1,648	111,09
-1,673	110,28
-1,696	109,27
-1,720	108,35
-1,744	107,62
-1,766	106,82
-1,786	106,00
-1,806	105,35
-1,825	104,58
-1,843	103,83
-1,861	103,32
-1,877	102,64
-1,894	102,12
-1,909	101,58
-1,923	101,04
-1,935	100,66
-1,946	100,25
-1,957	99,84
-1,968	99,51
-1,976	99,09
-1,985	98,69
-1,992	98,43
-2,000	98,05
-2,004	97,85
-2,007	97,56
-2,011	97,45
-2,012	97,30
-2,014	97,16
-2,014	97,01
-2,014	96,89
-2,014	96,80
-2,011	96,71
-2,007	96,67
-2,003	96,66
-1,998	96,70
-1,990	96,80
-1,982	96,86
-1,974	96,97
-1,965	97,11
-1,954	97,31
-1,943	97,42
-1,931	97,68
-1,916	97,87
-1,902	98,01
-1,887	98,31
-1,872	98,52
-1,855	98,85
-1,836	99,14
-1,817	99,44
-1,799	99,82
-1,778	100,25
-1,756	100,62
-1,736	101,15
-1,712	101,70
-1,690	102,18
-1,665	102,80
-1,640	103,31
-1,615	104,03
-1,588	104,68
-1,561	105,24
-1,533	105,95
-1,506	106,75
-1,478	107,40
-1,450	108,24
-1,420	109,12
-1,390	109,85
-1,360	110,90
-1,330	111,70
-1,299	112,83
-1,268	113,95
-1,236	114,85
-1,203	116,08
-1,172	117,32
-1,140	118,38
-1,107	119,65
-1,076	120,97
-1,043	122,04
-1,012	123,38
-0,979	124,53
-0,946	126,02
-0,913	127,61
-0,881	128,84
-0,850	130,54
-0,817	132,18
-0,785	133,63
-0,754	135,44
-0,724	137,19
-0,693	138,64
-0,661	140,57
-0,631	142,66
-0,602	144,23
-0,573	146,36
-0,545	147,97
-0,517	150,01
-0,490	152,00
-0,462	153,89
-0,435	155,49
-0,408	157,47
-0,383	159,14
-0,358	161,26
-0,335	163,38
-0,313	165,25
-0,291	167,31
-0,270	169,46
-0,248	171,06
-0,228	172,96
-0,209	174,67
-0,188	176,11
-0,171	177,97
-0,154	179,89
-0,138	181,41
-0,123	183,31
-0,108	184,69
-0,096	186,21
-0,083	187,65
-0,071	188,86
-0,060	190,29
-0,049	191,66
-0,039	192,76
-0,030	193,96
-0,024	195,07
-0,017	195,94
-0,011	196,77
-0,006	197,61
-0,003	198,32
0,000	198,90
0,003	199,53
0,005	199,93
0,005	200,39
0,006	200,56
0,005	200,73
0,003	200,98
0,000	200,98
-0,003	200,84
-0,008	200,68
-0,013	200,46
-0,019	200,14
-0,027	199,70
-0,035	199,26
-0,044	198,64
-0,053	197,96
-0,064	197,42
-0,075	196,52
-0,088	195,57
-0,101	194,82
-0,115	193,70
-0,129	192,63
-0,145	191,70
-0,162	190,49
-0,181	189,27
-0,199	188,14
-0,218	186,78
-0,239	185,79
-0,259	184,25
-0,281	182,67
-0,302	181,44
-0,325	179,71
-0,349	178,18
-0,372	176,85
-0,397	175,18
-0,424	173,43
-0,449	171,92
-0,476	170,16
-0,504	168,32
-0,533	166,85
-0,561	165,04
-0,589	163,19
-0,619	161,76
-0,649	159,92
-0,679	157,96
-0,708	156,43
-0,740	154,49
-0,771	152,84
-0,803	150,87
-0,836	148,88
-0,867	147,37
-0,900	145,50
-0,931	143,64
-0,964	142,23
-0,997	140,41
-1,029	138,66
-1,062	137,21
-1,095	135,38
-1,128	133,60
-1,161	132,16
-1,194	130,45
-1,225	128,80
-1,257	127,55
-1,288	125,95
-1,319	124,69
-1,351	123,22
-1,381	121,80
-1,412	120,70
-1,442	119,38
-1,470	118,08
-1,500	117,06
-1,527	115,83
-1,555	114,63
-1,582	113,69
-1,608	112,56
-1,634	111,64
-1,659	110,58
-1,682	109,60
-1,706	108,73
-1,729	107,81
-1,751	106,96
-1,773	106,24
-1,794	105,41
-1,813	104,67
-1,832	104,03
-1,850	103,27
-1,868	102,77
-1,883	102,14
-1,899	101,58
-1,913	101,14
-1,927	100,66
-1,940	100,17
-1,951	99,83
-1,962	99,36
-1,971	98,91
-1,981	98,59
-1,989	98,22
-1,995	97,90
-2,001	97,61
-2,006	97,39
-2,009	97,24
-2,012	97,01
-2,014	96,89
-2,014	96,81
-2,014	96,73
-2,014	96,64
-2,012	96,60
-2,011	96,59
-2,006	96,56
-2,001	96,63
-1,995	96,73
-1,987	96,77
-1,979	96,90
-1,971	97,01
-1,962	97,11
-1,949	97,20
-1,938	97,33
-1,924	97,48
-1,912	97,67
-1,896	97,90
-1,882	98,19
-1,865	98,51
-1,847	98,83
-1,830	99,21
-1,810	99,62
-1,791	99,95
-1,769	100,44
-1,748	100,92
-1,726	101,35
-1,704	101,89
-1,681	102,34
-1,656	103,03
-1,630	103,68
-1,604	104,27
-1,577	104,99
-1,550	105,74
-1,524	106,34
-1,495	107,15
-1,467	107,96
-1,437	108,68
-1,409	109,59
-1,379	110,32
-1,349	111,30
-1,318	112,30
-1,286	113,21
-1,255	114,43
-1,224	115,60
-1,192	116,61
-1,159	117,86
-1,128	119,18
-1,095	120,20
-1,063	121,47
-1,030	122,55
-0,999	123,96
-0,966	125,38
-0,933	126,57
-0,902	128,25
-0,869	129,82
-0,837	131,09
-0,806	132,90
-0,774	134,65
-0,743	136,03
-0,712	137,90
-0,680	139,77
-0,650	141,39
-0,619	143,33
-0,591	144,96
-0,562	146,96
-0,534	149,02
-0,507	150,61
-0,479	152,63
-0,452	154,55
-0,426	156,10
-0,399	158,18
-0,374	160,25
-0,350	161,97
-0,328	164,15
-0,305	166,26
-0,283	168,08
-0,262	170,08
-0,240	172,02
-0,220	173,46
-0,201	175,29
-0,182	177,16
-0,165	178,61
-0,149	180,61
-0,134	182,36
-0,118	183,74
-0,104	185,36
-0,091	186,59
-0,079	188,19
-0,066	189,65
-0,057	190,83
-0,046	192,19
-0,036	193,38
-0,028	194,40
-0,020	195,39
-0,014	196,35
-0,009	197,15
-0,005	197,92
-0,002	198,68
0,002	199,24
0,003	199,68
0,005	200,16
0,006	200,46
0,006	200,80
0,005	201,00
0,003	201,01
0,000	201,08
-0,005	200,83
-0,009	200,70
-0,016	200,42
-0,022	200,06
-0,028	199,57
-0,038	199,13
-0,047	198,61
-0,057	197,83
-0,069	197,01
-0,080	196,35
-0,093	195,27
-0,107	194,42
-0,121	193,56
-0,135	192,50
-0,152	191,23
-0,170	190,23
-0,187	188,88
-0,206	187,81
-0,226	186,45
-0,247	185,06
-0,267	183,76
-0,289	182,27
-0,311	180,69
-0,335	179,36
-0,357	177,70
-0,382	176,04
-0,407	174,71
-0,434	173,01
-0,459	171,21
-0,487	169,79
-0,514	167,94
-0,542	165,98
-0,570	164,55
-0,600	162,69
-0,630	160,81
-0,658	159,29
-0,690	157,45
-0,719	155,88
-0,751	154,10
-0,782	152,17
-0,814	150,59
-0,845	148,60
-0,877	146,63
-0,909	145,09
-0,942	143,17
-0,974	141,44
-1,007	140,00
-1,040	138,25
-1,073	136,52
-1,106	135,09
-1,139	133,29
-1,170	131,53
-1,203	130,16
-1,235	128,55
-1,266	126,95
-1,297	125,71
-1,329	124,26
-1,359	123,07
-1,390	121,68
-1,420	120,25
-1,450	119,17
-1,480	117,86
-1,508	116,61
-1,536	115,66
-1,563	114,47
-1,590	113,42
-1,616	112,51
-1,641	111,48
-1,665	110,68
-1,690	109,68
-1,714	108,66
-1,737	107,91
-1,759	107,04
-1,780	106,15
-1,800	105,48
-1,819	104,66
-1,838	103,93
-1,855	103,40
-1,872	102,78
-1,890	102,31
-1,904	101,67
-1,918	101,00
-1,932	100,57
-1,945	100,07
-1,956	99,60
-1,965	99,23
-1,974	98,84
-1,982	98,53
-1,990	98,29
-1,998	97,95
-2,003	97,72
-2,007	97,55
-2,011	97,29
-2,012	97,16
-2,014	97,01
-2,015	96,84
-2,015	96,76
-2,014	96,76
-2,012	96,62
-2,009	96,65
-2,004	96,66
-2,000	96,70
-1,993	96,73
-1,985	96,81
-1,976	96,88
-1,967	96,98
-1,957	97,09
-1,946	97,18
-1,934	97,37
-1,921	97,55
-1,907	97,72
-1,891	97,98
-1,876	98,22
-1,860	98,54
-1,841	98,88
-1,824	99,19
-1,803	99,61
-1,784	100,05
-1,762	100,44
-1,742	100,93
-1,720	101,46
-1,696	101,93
-1,673	102,48
-1,648	103,00
-1,623	103,66
-1,596	104,34
-1,569	104,91
-1,543	105,70
-1,516	106,52
-1,488	107,15
-1,459	107,99
-1,429	108,92
-1,400	109,64
-1,370	110,58
-1,340	111,39
-1,308	112,43
-1,277	113,53
-1,246	114,47
-1,214	115,69
-1,183	116,92
-1,150	117,96
-1,118	119,28
-1,085	120,59
-1,054	121,66
-1,021	123,01
-0,990	124,11
-0,957	125,59
-0,924	127,11
-0,891	128,38
-0,859	130,04
-0,828	131,64
-0,796	133,06
-0,765	134,80
-0,734	136,63
-0,702	138,15
-0,671	140,08
-0,641	142,02
-0,611	143,70
-0,581	145,73
-0,553	147,40
-0,525	149,47
-0,496	151,39
-0,470	152,97
-0,443	154,95
-0,416	156,95
-0,391	158,58
-0,366	160,67
-0,342	162,79
-0,320	164,50
-0,298	166,68
-0,276	168,83
-0,254	170,43
-0,234	172,44
-0,214	174,32
-0,195	175,73
-0,176	177,57
-0,159	179,40
-0,143	180,78
-0,127	182,55
-0,113	183,99
-0,099	185,76
-0,086	187,31
-0,074	188,52
-0,063	189,92
-0,052	191,28
-0,042	192,32
-0,033	193,59
-0,025	194,83
-0,019	195,67
-0,013	196,56
-0,008	197,49
-0,003	198,12
0,000	198,68
0,003	199,26
0,005	199,67
0,006	200,23
0,006	200,55
0,006	200,85
0,003	200,98
0,002	201,03
-0,003	200,96
-0,006	200,81
-0,011	200,66
-0,017	200,38
-0,024	200,00
-0,031	199,59
-0,041	198,97
-0,050	198,22
-0,061	197,64
-0,072	196,79
-0,085	195,96
-0,097	195,17
-0,110	194,17
-0,124	193,08
-0,140	192,22
-0,157	190,94
-0,174	189,61
-0,193	188,55
-0,210	187,33
-0,231	186,20
-0,250	184,81
-0,272	183,24
-0,294	181,97
-0,316	180,39
-0,339	178,74
-0,363	177,44
-0,388	175,75
-0,413	173,98
-0,440	172,68
-0,467	170,86
-0,493	169,15
-0,522	167,70
-0,550	165,87
-0,578	163,93
-0,608	162,44
-0,638	160,49
-0,668	158,54
-0,697	156,96
-0,727	155,09
-0,759	153,27
-0,790	151,80
-0,822	149,88
-0,855	148,33
-0,888	146,43
-0,919	144,63
-0,952	143,08
-0,983	141,23
-1,016	139,41
-1,049	137,93
-1,082	136,12
-1,115	134,43
-1,148	132,99
-1,180	131,31
-1,213	129,64
-1,244	128,35
-1,275	126,73
-1,307	125,16
-1,338	123,97
-1,368	122,46
-1,400	121,22
-1,429	119,85
-1,459	118,51
-1,488	117,48
-1,516	116,26
-1,544	115,10
-1,571	114,26
-1,598	113,08
-1,623	112,24
-1,649	111,19
-1,673	110,13
-1,696	109,31
-1,720	108,31
-1,744	107,33
-1,766	106,64
-1,786	105,80
-1,806	104,98
-1,825	104,41
-1,843	103,71
-1,860	103,00
-1,877	102,51
-1,893	101,89
-1,909	101,48
-1,923	100,97
-1,935	100,43
-1,946	100,06
-1,957	99,63
-1,967	99,23
-1,976	98,89
-1,985	98,49
-1,992	98,14
-2,000	97,82
-2,004	97,61
-2,007	97,40
-2,011	97,16
-2,012	96,91
-2,014	96,73
-2,014	96,57
-2,014	96,42
-2,014	96,31
-2,011	96,27
-2,007	96,28
-2,003	96,28
-1,996	96,31
-1,990	96,37
-1,982	96,43
-1,973	96,49
-1,963	96,57
-1,954	96,69
-1,942	96,85
-1,929	96,94
-1,916	97,22
-1,902	97,44
-1,888	97,70
-1,872	98,00
-1,855	98,31
-1,836	98,65
-1,817	99,06
-1,797	99,43
-1,777	99,92
-1,756	100,47
-1,736	100,85
-1,712	101,44
-1,689	102,01
-1,665	102,51
-1,640	103,12
-1,615	103,79
-1,590	104,32
-1,561	105,07
-1,535	105,62
-1,506	106,49
-1,478	107,26
-1,450	107,99
-1,420	108,87
-1,390	109,86
-1,360	110,62
-1,330	111,67
-1,299	112,75
-1,268	113,66
-1,236	114,90
-1,205	115,89
-1,172	117,13
-1,140	118,48
-1,109	119,42
-1,076	120,73
-1,045	122,05
-1,012	123,16
-0,979	124,56
-0,946	125,78
-0,913	127,34
-0,881	128,89
-0,850	130,26
-0,818	132,00
-0,787	133,70
-0,756	135,13
-0,724	136,97
-0,693	138,86
-0,661	140,30
-0,631	142,25
-0,602	144,27
-0,573	145,91
-0,545	147,97
-0,517	150,05
-0,490	151,67
-0,462	153,57
-0,435	155,68
-0,410	157,39
-0,385	159,46
-0,360	161,06
-0,336	163,27
-0,313	165,39
-0,291	167,11
-0,270	169,12
-0,248	170,97
-0,228	172,31
-0,209	174,27
-0,190	176,29
-0,171	177,80
-0,154	179,78
-0,138	181,76
-0,123	183,14
-0,108	184,81
-0,096	186,38
-0,083	187,49
-0,071	188,95
-0,060	190,09
-0,049	191,50
-0,039	192,94
-0,031	193,85
-0,024	194,77
-0,017	195,85
-0,011	196,53
-0,006	197,55
-0,003	198,39
0,000	198,98
0,003	199,50
0,005	199,96
0,006	200,23
0,006	200,61
0,005	200,79
0,003	200,88
0,000	200,95
-0,003	200,85
-0,008	200,66
-0,013	200,39
-0,019	200,04
-0,027	199,67
-0,035	199,15
-0,044	198,76
-0,053	198,04
-0,064	197,26
-0,075	196,60
-0,088	195,73
-0,101	194,80
-0,115	193,90
-0,129	192,81
-0,146	191,68
-0,162	190,70
-0,181	189,34
-0,198	188,11
-0,217	186,94
-0,237	185,55
-0,258	184,05
-0,280	182,90
-0,302	181,26
-0,325	179,98
-0,349	178,28
-0,372	176,69
-0,397	175,38
-0,423	173,67
-0,449	171,91
-0,476	170,38
-0,503	168,47
-0,531	166,64
-0,561	165,18
-0,589	163,41
-0,619	161,58
-0,649	160,06
-0,679	158,09
-0,708	156,25
-0,740	154,66
-0,771	152,88
-0,803	150,95
-0,834	149,30
-0,867	147,34
-0,898	145,79
-0,931	143,95
-0,964	142,13
-0,996	140,75
-1,029	138,91
-1,062	137,18
-1,095	135,75
-1,128	134,01
-1,159	132,27
-1,192	130,87
-1,224	129,25
-1,257	127,62
-1,288	126,31
-1,318	124,78
-1,349	123,36
-1,381	122,18
-1,411	120,72
-1,440	119,35
-1,470	118,32
-1,499	117,02
-1,527	116,03
-1,554	114,87
-1,580	113,72
-1,607	112,81
-1,634	111,74
-1,659	110,91
-1,682	109,86
-1,706	108,84
-1,728	108,10
-1,751	107,19
-1,773	106,30
-1,794	105,63
-1,814	104,88
-1,832	104,13
-1,850	103,61
-1,868	103,00
-1,883	102,34
-1,899	101,85
-1,913	101,32
-1,927	100,84
-1,940	100,34
-1,951	99,89
-1,962	99,56
-1,971	99,16
-1,981	98,81
-1,989	98,59
-1,995	98,33
-2,001	98,14
-2,006	97,82
-2,009	97,61
-2,012	97,39
-2,014	97,17
-2,014	96,98
-2,014	96,85
-2,014	96,71
-2,012	96,64
-2,009	96,63
-2,006	96,68
-2,000	96,70
-1,995	96,79
-1,987	96,90
-1,981	96,93
-1,971	97,08
-1,960	97,16
-1,949	97,26
-1,937	97,42
-1,924	97,62
-1,910	97,79
-1,896	98,04
-1,882	98,36
-1,865	98,67
-1,847	98,94
-1,830	99,27
-1,810	99,74
-1,789	100,12
-1,769	100,50
-1,747	101,02
-1,725	101,52
-1,703	101,98
-1,679	102,57
-1,654	103,19
-1,629	103,69
-1,604	104,37
-1,577	104,96
-1,550	105,72
-1,522	106,46
-1,494	107,10
-1,466	107,96
-1,437	108,82
-1,407	109,52
-1,378	110,49
-1,348	111,44
-1,316	112,31
-1,285	113,41
-1,253	114,31
-1,222	115,53
-1,191	116,73
-1,158	117,79
-1,126	119,04
-1,095	120,36
-1,062	121,39
-1,030	122,72
-0,997	124,13
-0,964	125,29
-0,931	126,77
-0,898	128,35
-0,867	129,58
-0,836	131,30
-0,804	132,73
-0,773	134,51
-0,741	136,30
-0,710	137,76
-0,679	139,73
-0,649	141,67
-0,619	143,16
-0,589	145,19
-0,561	147,23
-0,533	148,83
-0,506	150,93
-0,478	152,87
-0,451	154,50
-0,423	156,53
-0,397	158,58
-0,372	160,22
-0,349	162,20
-0,327	164,30
-0,303	166,07
-0,281	168,24
-0,259	169,91
-0,239	171,86
-0,218	173,74
-0,199	175,19
-0,181	176,96
-0,163	178,88
-0,148	180,46
-0,130	182,28
-0,116	184,07
-0,102	185,41
-0,088	186,90
-0,077	188,36
-0,064	189,49
-0,055	190,83
-0,044	192,19
-0,035	193,19
-0,027	194,30
-0,019	195,38
-0,013	196,16
-0,008	197,07
-0,005	197,79
-0,002	198,62
0,002	199,26
0,003	199,77
0,005	200,21
0,006	200,56
0,005	200,75
0,005	200,99
0,002	201,03
-0,002	201,03
-0,005	200,89
-0,011	200,64
-0,016	200,39
-0,024	199,93
-0,031	199,45
-0,039	199,07
-0,047	198,50
-0,058	197,81
-0,069	197,11
-0,082	196,23
-0,094	195,26
-0,107	194,55
-0,121	193,42
-0,137	192,33
-0,154	191,43
-0,171	190,10
-0,190	189,07
-0,207	187,74
-0,226	186,28
-0,247	185,21
-0,267	183,71
-0,291	182,13
-0,313	180,93
-0,336	179,21
-0,360	177,53
-0,383	176,18
-0,408	174,36
-0,434	172,67
-0,460	171,39
-0,489	169,60
-0,517	167,83
-0,545	166,31
-0,573	164,49
-0,602	162,61
-0,631	161,03
-0,661	159,14
-0,691	157,54
-0,721	155,71
-0,752	153,91
-0,784	152,40
-0,817	150,49
-0,848	148,44
-0,881	146,82
-0,913	144,92
-0,946	143,12
-0,979	141,64
-1,010	139,77
-1,043	138,15
-1,076	136,70
-1,109	135,04
-1,142	133,30
-1,175	131,86
-1,206	130,17
-1,239	128,45
-1,271	127,17
-1,302	125,59
-1,332	124,39
-1,363	122,92
-1,393	121,52
-1,425	120,41
-1,455	119,09
-1,483	117,82
-1,513	116,78
-1,539	115,55
-1,566	114,42
-1,593	113,46
-1,618	112,36
-1,645	111,52
-1,670	110,45
-1,693	109,49
-1,717	108,73
-1,739	107,82
-1,761	107,01
-1,783	106,30
-1,803	105,54
-1,822	104,76
-1,841	104,18
-1,858	103,48
-1,876	102,95
-1,891	102,35
-1,907	101,77
-1,921	101,38
-1,934	100,84
-1,946	100,35
-1,956	99,94
-1,965	99,54
-1,974	99,16
-1,984	98,83
-1,992	98,50
-2,000	98,22
-2,004	97,95
-2,007	97,77
-2,011	97,65
-2,012	97,44
-2,014	97,29
-2,014	97,15
-2,014	97,07
-2,014	96,91
-2,012	96,82
-2,009	96,86
-2,004	96,80
-1,998	96,82
-1,992	96,90
-1,984	97,01
-1,976	97,01
-1,967	97,15
-1,956	97,22
-1,945	97,38
-1,932	97,51
-1,920	97,69
-1,905	97,98
-1,891	98,26
-1,876	98,48
-1,858	98,85
-1,839	99,18
-1,822	99,61
-1,802	100,06
-1,781	100,40
-1,761	100,79
-1,739	101,30
-1,717	101,69
-1,693	102,22
-1,670	102,68
-1,645	103,31
-1,619	103,96
-1,593	104,55
-1,566	105,26
-1,539	106,08
-1,511	106,72
-1,483	107,60
-1,455	108,39
-1,426	109,15
-1,396	110,06
-1,367	111,02
-1,335	111,83
-1,304	112,86
-1,274	113,77
-1,241	114,97
-1,210	116,15
-1,178	117,07
-1,145	118,39
-1,114	119,69
-1,081	120,77
-1,049	122,04
-1,016	123,41
-0,985	124,60
-0,952	126,08
-0,919	127,31
-0,886	128,89
-0,855	130,53
-0,823	131,89
-0,792	133,60
-0,760	135,37
-0,729	136,81
-0,697	138,69
-0,666	140,61
-0,636	142,08
-0,606	144,08
-0,578	145,73
-0,548	147,81
-0,522	149,88
-0,493	151,39
-0,467	153,47
-0,440	155,46
-0,413	157,08
-0,388	159,22
-0,363	161,26
-0,339	162,98
-0,317	165,14
-0,295	167,37
-0,273	169,07
-0,253	171,02
-0,231	172,88
-0,212	174,16
-0,192	175,94
-0,174	177,89
-0,157	179,45
-0,141	181,48
-0,126	182,96
-0,112	184,73
-0,097	186,35
-0,085	187,41
-0,072	188,82
-0,061	190,23
-0,050	191,35
-0,041	192,84
-0,031	194,07
-0,025	194,95
-0,017	195,84
-0,013	196,73
-0,008	197,47
-0,003	198,23
0,000	199,09
0,002	199,46
0,005	200,07
0,005	200,37
0,006	200,68
0,005	200,91
0,003	201,04
0,002	201,08
-0,003	201,01
-0,006	200,95
-0,013	200,64
-0,019	200,30
-0,025	199,84
-0,033	199,38
-0,042	198,80
-0,052	198,24
-0,063	197,52
-0,074	196,70
-0,086	195,92
-0,099	195,01
-0,112	194,14
-0,126	193,12
-0,141	192,02
-0,159	190,84
-0,178	189,71
-0,196	188,50
-0,215	187,04
-0,234	186,07
-0,254	184,54
-0,275	183,33
-0,297	181,73
-0,320	180,02
-0,344	178,65
-0,369	177,10
-0,393	175,42
-0,418	174,15
-0,445	172,46
-0,471	170,60
-0,498	169,08
-0,526	167,25
-0,554	165,47
-0,584	164,07
-0,613	162,09
-0,642	160,22
-0,674	158,69
-0,704	156,77
-0,734	154,83
-0,765	153,27
-0,796	151,39
-0,829	149,75
-0,861	147,91
-0,894	146,00
-0,927	144,56
-0,958	142,73
-0,991	140,94
-1,023	139,54
-1,056	137,65
-1,089	135,82
-1,122	134,34
-1,155	132,59
-1,188	130,84
-1,219	129,50
-1,250	127,83
-1,282	126,32
-1,313	125,09
-1,345	123,66
-1,374	122,51
-1,406	121,12
-1,436	119,78
-1,466	118,74
-1,494	117,42
-1,522	116,15
-1,549	115,17
-1,576	113,94
-1,602	112,81
-1,629	111,88
-1,654	110,93
-1,679	110,10
-1,701	109,14
-1,725	108,25
-1,747	107,51
-1,769	106,62
-1,791	105,80
-1,811	105,12
-1,828	104,34
-1,847	103,67
-1,865	103,11
-1,880	102,47
-1,896	102,00
-1,912	101,39
-1,926	100,88
-1,938	100,45
-1,949	100,01
-1,960	99,59
-1,970	99,28
-1,979	98,93
-1,987	98,57
-1,995	98,33
-2,001	98,10
-2,006	97,82
-2,009	97,64
-2,011	97,44
-2,012	97,27
-2,014	97,11
-2,014	96,95
-2,014	96,86
-2,014	96,79
-2,011	96,72
-2,006	96,71
-2,001	96,76
-1,995	96,85
-1,989	96,90
-1,981	97,04
-1,971	97,16
-1,962	97,35
-1,951	97,54
-1,940	97,67
-1,927	97,89
-1,913	98,11
-1,899	98,32
-1,883	98,62
-1,868	98,97
-1,850	99,25
-1,833	99,63
-1,813	99,95
-1,794	100,39
-1,773	100,86
-1,751	101,18
-1,729	101,65
-1,707	102,22
-1,684	102,68
-1,659	103,26
-1,634	103,89
-1,608	104,48
-1,582	105,21
-1,555	105,74
-1,527	106,55
-1,500	107,36
-1,470	107,99
-1,442	108,86
-1,414	109,74
-1,384	110,50
-1,352	111,49
-1,323	112,53
-1,291	113,44
-1,260	114,51
-1,228	115,47
-1,197	116,69
-1,164	117,94
-1,133	118,92
-1,100	120,31
-1,068	121,56
-1,037	122,65
-1,004	124,01
-0,971	125,47
-0,939	126,65
-0,906	128,20
-0,873	129,50
-0,842	131,11
-0,811	132,84
-0,779	134,28
-0,748	136,09
-0,716	137,87
-0,685	139,39
-0,655	141,40
-0,624	143,36
-0,595	144,98
-0,565	147,00
-0,539	149,08
-0,511	150,69
-0,484	152,60
-0,456	154,47
-0,429	156,05
-0,404	158,03
-0,379	159,69
-0,355	161,97
-0,331	164,16
-0,308	165,84
-0,286	167,94
-0,264	169,84
-0,243	171,30
-0,225	173,25
-0,204	175,23
-0,185	176,78
-0,168	178,67
-0,151	180,54
-0,135	182,03
-0,119	183,74
-0,105	185,20
-0,093	186,44
-0,080	188,00
-0,069	189,46
-0,058	190,60
-0,047	191,99
-0,038	193,23
-0,028	194,21
-0,022	195,26
-0,016	196,17
-0,011	197,09
-0,006	197,97
-0,002	198,60
0,002	199,30
0,003	199,72
0,005	200,14
0,005	200,34
0,005	200,76
0,005	200,91
0,003	201,07
0,000	201,06
-0,003	200,94
-0,008	200,71
-0,014	200,46
-0,020	200,16
-0,028	199,76
-0,036	199,18
-0,046	198,64
-0,055	198,00
-0,066	197,35
-0,079	196,46
-0,090	195,44
-0,104	194,77
-0,116	193,76
-0,132	192,62
-0,149	191,57
-0,167	190,42
-0,184	189,01
-0,203	187,98
-0,221	186,62
-0,242	185,25
-0,262	184,02
-0,284	182,56
-0,306	180,88
-0,330	179,58
-0,353	178,09
-0,377	176,74
-0,402	175,11
-0,427	173,37
-0,454	171,98
-0,481	170,12
-0,509	168,24
-0,537	166,75
-0,565	164,94
-0,594	163,08
-0,624	161,74
-0,653	159,76
-0,683	157,80
-0,715	156,32
-0,745	154,41
-0,776	152,52
-0,807	151,03
-0,840	149,00
-0,872	146,98
-0,905	145,49
-0,936	143,66
-0,969	141,90
-1,002	140,46
-1,034	138,69
-1,067	137,17
-1,100	135,46
-1,133	133,60
-1,166	132,13
-1,199	130,47
-1,230	128,75
-1,261	127,43
-1,293	125,89
-1,324	124,35
-1,354	123,24
-1,385	121,70
-1,415	120,62
-1,445	119,28
-1,475	118,07
-1,503	117,07
-1,532	115,85
-1,558	114,70
-1,585	113,77
-1,612	112,66
-1,637	111,48
-1,662	110,61
-1,685	109,57
-1,709	108,77
-1,731	107,87
-1,755	106,99
-1,777	106,33
-1,797	105,52
-1,817	104,77
-1,835	104,18
-1,852	103,53
-1,869	102,89
-1,887	102,34
-1,901	101,76
-1,916	101,37
-1,931	100,83
-1,942	100,31
-1,953	99,91
-1,963	99,44
-1,973	99,06
-1,982	98,72
-1,990	98,37
-1,996	98,10
-2,001	97,80
-2,006	97,51
-2,009	97,33
-2,012	97,17
-2,014	97,04
-2,014	96,94
-2,014	96,81
-2,014	96,70
-2,012	96,63
-2,009	96,59
-2,004	96,53
-2,000	96,53
-1,993	96,56
-1,987	96,64
-1,978	96,73
-1,970	96,77
-1,959	96,87
-1,948	96,99
-1,937	97,20
-1,923	97,34
-1,909	97,56
-1,894	97,86
-1,879	98,12
-1,863	98,47
-1,846	98,87
-1,827	99,23
-1,808	99,63
-1,788	100,01
-1,767	100,48
-1,745	100,96
-1,723	101,34
-1,701	101,83
-1,678	102,43
-1,652	102,93
-1,627	103,61
-1,601	104,08
-1,574	104,87
-1,547	105,63
-1,519	106,27
-1,491	107,14
-1,462	108,02
-1,434	108,72
-1,404	109,65
-1,374	110,59
-1,345	111,31
-1,313	112,42
-1,283	113,50
-1,252	114,45
-1,221	115,60
-1,188	116,62
-1,156	117,88
-1,123	119,20
-1,092	120,25
-1,059	121,62
-1,027	122,91
-0,994	124,06
-0,963	125,49
-0,928	127,00
-0,895	128,29
-0,864	129,88
-0,833	131,21
-0,801	132,89
-0,770	134,68
-0,738	136,10
-0,707	137,94
-0,677	139,89
-0,646	141,52
-0,616	143,45
-0,586	145,60
-0,558	147,25
-0,531	149,23
-0,503	151,25
-0,476	152,78
-0,448	154,77
-0,421	156,69
-0,396	158,35
-0,371	160,46
-0,347	162,17
-0,325	164,28
-0,302	166,51
-0,280	168,19
-0,259	170,20
-0,239	172,19
-0,218	173,59
-0,199	175,42
-0,181	177,36
-0,163	178,82
-0,146	180,79
-0,130	182,55
-0,116	183,95
-0,102	185,44
-0,090	186,91
-0,077	188,09
-0,064	189,56
-0,053	191,11
-0,044	192,09
-0,035	193,47
-0,027	194,62
-0,020	195,45
-0,014	196,32
-0,009	197,12
-0,005	198,01
-0,002	198,81
0,002	199,27
0,005	199,75
0,005	200,14
0,005	200,38
0,005	200,66
0,003	200,87
0,002	200,95
-0,002	201,00
-0,005	200,82
-0,009	200,66
-0,016	200,31
-0,024	199,94
-0,031	199,48
-0,039	198,95
-0,049	198,42
-0,058	197,73
-0,069	196,95
-0,082	196,15
-0,093	195,30
-0,107	194,29
-0,123	193,58
-0,138	192,34
-0,154	191,11
-0,171	190,22
-0,190	188,81
-0,207	187,58
-0,226	186,40
-0,247	185,04
-0,269	183,51
-0,291	182,36
-0,313	180,63
-0,336	179,05
-0,360	177,66
-0,385	176,06
-0,408	174,32
-0,435	172,92
-0,462	171,18
-0,489	169,44
-0,517	167,97
-0,545	166,12
-0,575	164,33
-0,603	162,82
-0,633	160,90
-0,663	159,37
-0,693	157,47
-0,723	155,50
-0,754	154,04
-0,785	152,13
-0,817	150,19
-0,850	148,60
-0,881	146,69
-0,914	144,84
-0,947	143,40
-0,979	141,56
-1,012	139,84
-1,045	138,38
-1,076	136,66
-1,109	134,85
-1,142	133,46
-1,175	131,70
-1,208	129,99
-1,239	128,66
-1,271	127,06
-1,302	125,81
-1,334	124,37
-1,365	122,93
-1,395	121,81
-1,425	120,45
-1,455	119,07
-1,484	117,97
-1,513	116,71
-1,539	115,70
-1,566	114,53
-1,593	113,41
-1,619	112,58
-1,645	111,44
-1,670	110,44
-1,693	109,62
-1,717	108,63
-1,739	107,71
-1,762	106,95
-1,783	106,11
-1,803	105,54
-1,822	104,77
-1,841	104,01
-1,858	103,47
-1,874	102,85
-1,891	102,22
-1,905	101,71
-1,921	101,21
-1,934	100,66
-1,945	100,27
-1,956	99,89
-1,967	99,41
-1,976	99,13
-1,984	98,76
-1,992	98,47
-1,998	98,15
-2,003	97,82
-2,007	97,54
-2,011	97,37
-2,012	97,11
-2,014	96,96
-2,015	96,83
-2,015	96,79
-2,014	96,75
-2,012	96,70
-2,007	96,67
-2,003	96,71
-1,998	96,76
-1,992	96,79
-1,984	96,87
-1,976	96,96
-1,967	97,04
-1,956	97,15
-1,945	97,25
-1,932	97,41
-1,920	97,56
-1,905	97,75
-1,890	98,05
-1,874	98,31
-1,857	98,61
-1,839	98,97
-1,821	99,37
-1,802	99,72
-1,781	100,18
-1,759	100,69
-1,739	101,15
-1,717	101,64
-1,693	102,07
-1,668	102,67
-1,643	103,33
-1,618	103,84
-1,591	104,55
-1,565	105,24
-1,538	105,78
-1,511	106,70
-1,483	107,51
-1,455	108,22
-1,425	109,15
-1,395	109,88
-1,365	110,87
-1,334	111,83
-1,304	112,67
-1,272	113,77
-1,241	114,90
-1,208	115,97
-1,177	117,21
-1,145	118,45
-1,112	119,51
-1,081	120,78
-1,048	121,85
-1,016	123,22
-0,983	124,65
-0,950	125,84
-0,917	127,30
-0,886	128,94
-0,853	130,24
-0,822	132,01
-0,792	133,75
-0,760	135,18
-0,729	136,98
-0,697	138,80
-0,666	140,31
-0,636	142,28
-0,605	144,21
-0,576	145,84
-0,548	147,95
-0,520	149,62
-0,493	151,66
-0,465	153,64
-0,438	155,19
-0,413	157,26
-0,386	159,29
-0,363	161,04
-0,339	163,01
-0,317	165,16
-0,294	166,93
-0,273	168,88
-0,251	170,87
-0,231	172,45
-0,212	174,41
-0,192	176,22
-0,174	177,74
-0,157	179,67
-0,140	181,47
-0,126	182,91
-0,110	184,63
-0,097	185,92
-0,085	187,53
-0,072	189,05
-0,061	190,17
-0,050	191,38
-0,041	192,65
-0,031	193,64
-0,024	194,80
-0,017	195,85
-0,013	196,67
-0,008	197,35
-0,003	198,25
0,000	198,83
0,003	199,46
0,005	199,98
0,006	200,35
0,006	200,77
0,005	200,89
0,003	200,97
0,002	200,99
-0,002	200,94
-0,006	200,88
-0,011	200,67
-0,019	200,36
-0,025	199,82
-0,033	199,34
-0,042	198,86
-0,052	198,22
-0,063	197,51
-0,074	196,77
-0,086	195,83
-0,099	194,82
-0,112	193,98
-0,127	193,00
-0,145	191,82
-0,162	190,88
-0,179	189,61
-0,196	188,26
-0,215	187,23
-0,234	185,90
-0,254	184,45
-0,276	183,23
-0,298	181,63
-0,322	180,30
-0,346	178,67
-0,369	177,00
-0,394	175,65
-0,419	173,85
-0,445	172,15
-0,473	170,70
-0,500	168,92
-0,528	167,10
-0,556	165,65
-0,586	163,83
-0,614	161,94
-0,644	160,43
-0,674	158,45
-0,704	156,54
-0,735	155,03
-0,767	153,13
-0,798	151,24
-0,829	149,69
-0,861	147,71
-0,894	146,23
-0,927	144,32
-0,960	142,51
-0,991	141,00
-1,024	139,19
-1,057	137,34
-1,090	135,91
-1,123	134,15
-1,155	132,45
-1,188	131,11
-1,221	129,41
-1,252	127,77
-1,283	126,55
-1,315	124,99
-1,346	123,52
-1,376	122,41
-1,406	120,96
-1,436	119,85
-1,466	118,57
-1,495	117,21
-1,524	116,22
-1,550	115,00
-1,577	113,85
-1,604	112,95
-1,629	111,88
-1,654	111,09
-1,679	110,01
-1,703	109,02
-1,725	108,32
-1,748	107,38
-1,770	106,53
-1,791	105,90
-1,811	105,14
-1,828	104,43
-1,847	103,89
-1,865	103,23
-1,882	102,58
-1,898	102,11
-1,912	101,53
-1,926	101,08
-1,938	100,57
-1,949	100,14
-1,960	99,77
-1,970	99,39
-1,979	98,97
-1,989	98,68
-1,995	98,36
-2,001	98,02
-2,006	97,86
-2,009	97,55
-2,011	97,46
-2,012	97,26
-2,014	97,19
-2,015	97,08
-2,015	97,01
-2,014	96,94
-2,011	96,91
-2,006	96,90
-2,001	96,88
-1,995	96,95
-1,989	96,99
-1,981	97,08
-1,971	97,13
-1,962	97,22
-1,951	97,32
-1,940	97,49
-1,927	97,70
-1,913	97,84
-1,899	98,07
-1,883	98,39
-1,868	98,64
-1,850	98,97
-1,832	99,25
-1,813	99,66
-1,792	100,05
-1,772	100,39
-1,751	100,89
-1,729	101,40
-1,707	101,82
-1,684	102,43
-1,659	103,05
-1,634	103,53
-1,607	104,21
-1,582	104,94
-1,555	105,50
-1,527	106,28
-1,500	106,93
-1,472	107,73
-1,442	108,63
-1,412	109,32
-1,382	110,28
-1,352	111,30
-1,321	112,14
-1,291	113,23
-1,260	114,32
-1,228	115,28
-1,195	116,53
-1,164	117,47
-1,131	118,74
-1,100	120,06
-1,068	121,07
-1,035	122,44
-1,004	123,80
-0,971	125,02
-0,938	126,61
-0,905	128,22
-0,873	129,50
-0,840	131,16
-0,809	132,50
-0,778	134,19
-0,746	135,96
-0,715	137,45
-0,685	139,34
-0,653	141,22
-0,624	142,84
-0,594	144,92
-0,565	146,93
-0,537	148,60
-0,509	150,62
-0,482	152,59
-0,454	154,22
-0,429	156,22
-0,402	158,22
-0,379	159,86
-0,353	161,96
-0,330	164,05
-0,306	165,85
-0,284	167,89
-0,264	169,53
-0,243	171,54
-0,223	173,44
-0,204	174,97
-0,185	176,85
-0,167	178,79
-0,151	180,28
-0,134	182,16
-0,119	183,89
-0,105	185,14
-0,091	186,68
-0,079	188,10
-0,068	189,29
-0,057	190,76
-0,047	192,15
-0,036	193,19
-0,028	194,36
-0,022	195,45
-0,016	196,25
-0,011	197,13
-0,006	197,92
-0,002	198,58
0,002	199,22
0,003	199,71
0,005	200,16
0,006	200,51
0,006	200,72
0,005	200,96
0,003	201,00
0,000	201,10
-0,005	201,06
-0,008	200,79
-0,014	200,54
-0,022	200,17
-0,028	199,70
-0,038	199,24
-0,046	198,59
-0,057	198,01
-0,068	197,29
-0,079	196,38
-0,091	195,61
-0,104	194,72
-0,118	193,56
-0,134	192,78
-0,151	191,56
-0,168	190,37
-0,185	189,28
-0,204	187,99
-0,221	186,65
-0,242	185,60
-0,264	184,05
-0,286	182,56
-0,309	181,23
-0,331	179,58
-0,355	177,88
-0,379	176,53
-0,404	174,82
-0,429	173,10
-0,456	171,72
-0,482	169,89
-0,511	168,45
-0,539	166,63
-0,569	164,79
-0,597	163,38
-0,627	161,50
-0,657	159,61
-0,686	158,07
-0,716	156,12
-0,748	154,25
-0,779	152,64
-0,811	150,68
-0,842	148,74
-0,875	147,23
-0,908	145,34
-0,939	143,48
-0,972	142,00
-1,005	140,22
-1,037	138,45
-1,070	137,02
-1,103	135,24
-1,136	133,38
-1,169	131,98
-1,202	130,26
-1,233	128,98
-1,264	127,35
-1,296	125,85
-1,327	124,69
-1,359	123,18
-1,389	121,82
-1,418	120,69
-1,448	119,35
-1,478	118,25
-1,506	117,05
-1,535	115,84
-1,561	114,85
-1,588	113,66
-1,615	112,52
-1,640	111,68
-1,665	110,60
-1,689	109,60
-1,712	108,81
-1,734	107,86
-1,758	106,88
-1,780	106,23
-1,799	105,45
-1,819	104,73
-1,836	103,97
-1,855	103,30
-1,871	102,77
-1,888	102,23
-1,904	101,72
-1,918	101,28
-1,931	100,79
-1,943	100,33
-1,954	99,96
-1,963	99,50
-1,974	99,13
-1,982	98,73
-1,990	98,35
-1,996	98,10
-2,003	97,86
-2,006	97,69
-2,009	97,48
-2,012	97,25
-2,014	97,11
-2,014	97,04
-2,014	96,85
-2,014	96,77
-2,012	96,70
-2,009	96,72
-2,004	96,73
-1,998	96,78
-1,993	96,87
-1,985	96,92
-1,978	97,03
-1,968	97,11
-1,957	97,18
-1,946	97,31
-1,934	97,44
-1,921	97,60
-1,907	97,85
-1,891	98,08
-1,877	98,40
-1,860	98,69
-1,843	98,97
-1,825	99,34
-1,805	99,76
-1,784	100,10
-1,764	100,55
-1,742	100,94
-1,720	101,42
-1,698	102,05
-1,673	102,58
-1,648	103,20
-1,623	103,89
-1,596	104,49
-1,571	105,18
-1,543	105,77
-1,516	106,52
-1,488	107,32
-1,459	107,89
-1,429	108,80
-1,400	109,76
-1,370	110,53
-1,340	111,53
-1,308	112,64
-1,279	113,53
-1,246	114,73
-1,214	115,77
-1,181	116,92
-1,150	118,22
-1,118	119,22
-1,085	120,51
-1,054	121,81
-1,023	122,88
-0,990	124,29
-0,957	125,85
-0,924	127,06
-0,891	128,63
-0,859	129,97
-0,828	131,62
-0,796	133,38
-0,765	134,76
-0,734	136,56
-0,702	138,39
-0,671	139,89
-0,641	141,83
-0,611	143,90
-0,581	145,57
-0,553	147,61
-0,525	149,73
-0,498	151,34
-0,471	153,28
-0,443	155,17
-0,418	156,74
-0,391	158,80
-0,366	160,48
-0,342	162,70
-0,320	164,85
-0,297	166,66
-0,276	168,70
-0,254	170,66
-0,236	172,23
-0,215	174,14
-0,195	175,98
-0,178	177,45
-0,159	179,34
-0,143	181,19
-0,127	182,62
-0,113	184,37
-0,099	186,02
-0,086	187,25
-0,074	188,64
-0,063	190,02
-0,052	191,18
-0,042	192,47
-0,033	193,47
-0,025	194,66
-0,019	195,75
-0,013	196,53
-0,008	197,43
-0,003	198,15
0,000	198,76
0,002	199,36
0,005	200,03
0,005	200,39
0,005	200,68
0,005	200,91
0,003	201,05
0,002	201,04
-0,002	201,02
-0,006	200,92
-0,011	200,66
-0,017	200,27
-0,025	199,96
-0,033	199,45
-0,041	198,84
-0,050	198,35
-0,061	197,60
-0,072	196,88
-0,083	195,99
-0,096	194,97
-0,110	194,15
-0,124	193,11
-0,141	191,98
-0,159	191,10
-0,176	189,84
-0,193	188,47
-0,212	187,37
-0,231	185,98
-0,251	184,53
-0,273	183,35
-0,295	181,84
-0,319	180,21
-0,342	179,02
-0,366	177,26
-0,390	175,85
-0,415	174,07
-0,441	172,30
-0,468	170,86
-0,495	169,07
-0,523	167,31
-0,553	165,71
-0,581	163,84
-0,611	161,96
-0,641	160,42
-0,669	158,63
-0,701	156,74
-0,730	155,22
-0,762	153,31
-0,793	151,35
-0,825	149,74
-0,858	147,77
-0,889	145,92
-0,922	144,37
-0,955	142,63
-0,986	141,17
-1,019	139,47
-1,052	137,62
-1,084	136,13
-1,117	134,31
-1,151	132,58
-1,184	131,17
-1,216	129,52
-1,247	127,88
-1,279	126,67
-1,310	125,09
-1,341	123,62
-1,371	122,44
-1,403	121,05
-1,433	119,96
-1,462	118,64
-1,491	117,42
-1,519	116,45
-1,547	115,27
-1,574	114,05
-1,599	113,18
-1,626	111,99
-1,651	111,17
-1,674	110,10
-1,698	109,10
-1,722	108,35
-1,745	107,44
-1,767	106,60
-1,788	105,98
-1,808	105,19
-1,827	104,50
-1,844	103,95
-1,863	103,25
-1,879	102,58
-1,896	102,14
-1,910	101,48
-1,924	101,00
-1,937	100,46
-1,948	99,99
-1,957	99,58
-1,968	99,17
-1,978	98,78
-1,987	98,51
-1,993	98,19
-2,000	97,91
-2,004	97,70
-2,007	97,53
-2,011	97,32
-2,012	97,17
-2,014	97,01
-2,015	96,93
-2,015	96,89
-2,014	96,76
-2,011	96,77
-2,007	96,74
-2,003	96,70
-1,996	96,76
-1,990	96,79
-1,982	96,85
-1,973	96,94
-1,963	97,07
-1,953	97,17
-1,942	97,37
-1,929	97,57
-1,915	97,75
-1,901	98,10
-1,885	98,34
-1,869	98,64
-1,852	98,95
-1,835	99,28
-1,816	99,64
-1,795	99,99
-1,775	100,31
-1,755	100,77
-1,733	101,28
-1,711	101,70
-1,687	102,32
-1,662	102,94
-1,637	103,43
-1,612	104,13
-1,585	104,70
-1,558	105,45
-1,530	106,18
-1,503	106,82
-1,475	107,63
-1,447	108,48
-1,417	109,23
-1,387	110,16
-1,357	111,20
-1,326	112,04
-1,296	113,14
-1,264	114,25
-1,232	115,24
-1,200	116,41
-1,167	117,40
-1,136	118,62
-1,104	119,88
-1,071	120,97
-1,040	122,29
-1,007	123,69
-0,974	124,91
-0,942	126,46
-0,909	127,97
-0,877	129,29
-0,845	130,88
-0,814	132,24
-0,782	133,95
-0,751	135,67
-0,719	137,09
-0,688	139,03
-0,657	141,03
-0,627	142,59
-0,598	144,69
-0,569	146,68
-0,542	148,32
-0,514	150,32
-0,487	152,33
-0,459	154,03
-0,432	155,90
-0,405	157,89
-0,380	159,50
-0,357	161,53
-0,333	163,60
-0,311	165,29
-0,289	167,38
-0,267	169,22
-0,247	171,32
-0,226	173,35
-0,206	174,77
-0,187	176,60
-0,170	178,46
-0,152	179,89
-0,137	181,74
-0,121	183,45
-0,107	184,78
-0,094	186,32
-0,082	187,80
-0,069	188,95
-0,058	190,35
-0,047	191,75
-0,038	192,91
-0,030	194,14
-0,022	195,26
-0,016	196,17
-0,011	196,96
-0,006	197,61
-0,002	198,34
0,002	199,08
0,003	199,60
0,005	200,04
0,005	200,32
0,005	200,46
0,005	200,73
0,003	200,78
0,000	200,89
-0,003	200,84
-0,008	200,59
-0,014	200,43
-0,020	200,10
-0,028	199,62
-0,036	199,28
-0,044	198,62
-0,055	198,02
-0,066	197,27
-0,077	196,42
-0,090	195,41
-0,102	194,52
-0,116	193,54
-0,132	192,63
-0,149	191,57
-0,165	190,29
-0,184	189,24
-0,201	187,98
-0,220	186,63
-0,240	185,54
-0,261	184,05
-0,283	182,52
-0,305	181,23
-0,328	179,67
-0,352	178,03
-0,375	176,68
-0,401	174,95
-0,426	173,14
-0,452	171,71
-0,479	169,88
-0,507	168,12
-0,536	166,66
-0,564	164,89
-0,594	163,39
-0,622	161,59
-0,652	159,64
-0,682	158,13
-0,713	156,18
-0,743	154,29
-0,774	152,77
-0,806	150,80
-0,839	148,86
-0,870	147,26
-0,903	145,40
-0,935	143,58
-0,968	142,10
-1,001	140,34
-1,032	138,52
-1,065	137,09
-1,098	135,28
-1,131	133,56
-1,164	132,14
-1,197	130,49
-1,228	129,19
-1,260	127,51
-1,293	125,97
-1,323	124,69
-1,352	123,17
-1,384	121,74
-1,414	120,57
-1,445	119,24
-1,473	118,21
-1,503	117,00
-1,530	115,81
-1,557	114,87
-1,583	113,79
-1,610	112,60
-1,637	111,71
-1,662	110,54
-1,685	109,55
-1,709	108,72
-1,731	107,81
-1,755	107,01
-1,777	106,18
-1,797	105,41
-1,816	104,85
-1,835	104,15
-1,852	103,50
-1,869	102,95
-1,885	102,36
-1,901	101,72
-1,916	101,27
-1,929	100,69
-1,942	100,27
-1,953	99,82
-1,963	99,37
-1,973	98,99
-1,982	98,61
-1,990	98,21
-1,996	97,94
-2,001	97,58
-2,006	97,27
-2,009	97,04
-2,012	96,88
-2,014	96,70
-2,014	96,61
-2,014	96,53
-2,014	96,49
-2,012	96,47
-2,009	96,46
-2,004	96,42
-2,000	96,48
-1,993	96,54
-1,987	96,53
-1,978	96,59
-1,968	96,71
-1,959	96,76
-1,948	96,83
-1,937	96,99
-1,924	97,20
-1,910	97,46
-1,894	97,71
-1,879	98,07
-1,863	98,45
-1,846	98,76
-1,827	99,21
-1,808	99,61
-1,788	99,95
-1,767	100,43
-1,745	100,89
-1,723	101,30
-1,701	101,84
-1,678	102,32
-1,652	102,97
-1,627	103,61
-1,601	104,18
-1,574	104,88
-1,547	105,66
-1,519	106,27
-1,492	107,13
-1,464	107,95
-1,436	108,65
-1,406	109,65
-1,374	110,44
-1,345	111,45
-1,313	112,53
-1,283	113,36
-1,252	114,41
-1,219	115,60
-1,188	116,56
-1,156	117,84
-1,123	119,14
-1,092	120,18
-1,059	121,54
-1,027	122,69
-0,994	124,09
-0,961	125,52
-0,928	126,77
-0,897	128,32
-0,864	129,91
-0,833	131,28
-0,801	132,99
-0,770	134,76
-0,738	136,17
-0,707	138,13
-0,675	140,04
-0,646	141,55
-0,616	143,46
-0,586	145,04
-0,558	147,02
-0,531	149,05
-0,503	150,73
-0,474	152,80
-0,448	154,86
-0,421	156,51
-0,396	158,60
-0,371	160,74
-0,347	162,38
-0,324	164,55
-0,302	166,61
-0,280	168,28
-0,259	170,27
-0,239	172,24
-0,218	173,66
-0,198	175,44
-0,179	177,30
-0,162	178,81
-0,146	180,82
-0,130	182,18
-0,116	184,05
-0,102	185,58
-0,088	186,90
-0,077	188,30
-0,064	189,82
-0,053	190,98
-0,044	192,26
-0,035	193,46
-0,027	194,39
-0,020	195,45
-0,014	196,44
-0,009	197,17
-0,005	197,95
-0,002	198,70
0,002	199,17
0,003	199,70
0,005	200,11
0,006	200,46
0,005	200,67
0,003	200,92
0,002	201,01
-0,002	201,03
-0,005	200,91
-0,009	200,72
-0,016	200,20
-0,024	199,83
-0,030	199,27
-0,039	198,78
-0,049	198,40
-0,058	197,64
-0,069	196,72
-0,082	195,98
-0,094	195,12
-0,108	194,11
-0,123	193,36
-0,138	192,28
-0,156	191,33
-0,171	190,08
-0,190	188,74
-0,207	187,64
-0,228	186,24
-0,248	184,81
-0,270	183,56
-0,292	182,06
-0,314	180,42
-0,338	179,17
-0,361	177,65
-0,385	175,87
-0,410	174,50
-0,437	172,79
-0,463	170,99
-0,490	169,60
-0,518	167,80
-0,547	165,88
-0,575	164,46
-0,605	162,53
-0,633	161,06
-0,663	159,14
-0,694	157,21
-0,724	155,70
-0,756	153,74
-0,787	151,77
-0,818	150,29
-0,851	148,34
-0,883	146,41
-0,916	144,94
-0,949	143,10
-0,980	141,27
-1,013	139,73
-1,045	138,01
-1,078	136,21
-1,111	134,79
-1,145	133,01
-1,177	131,34
-1,210	129,94
-1,241	128,33
-1,272	126,70
-1,304	125,44
-1,335	123,90
-1,365	122,72
-1,396	121,20
-1,426	119,91
-1,456	118,86
-1,484	117,70
-1,513	116,49
-1,541	115,51
-1,568	114,36
-1,594	113,40
-1,621	112,24
-1,646	111,21
-1,671	110,33
-1,695	109,31
-1,718	108,36
-1,740	107,68
-1,762	106,81
-1,783	106,01
-1,803	105,45
-1,824	104,76
-1,841	104,15
-1,858	103,55
-1,876	102,86
-1,891	102,36
-1,907	101,71
-1,921	101,15
-1,934	100,67
-1,946	100,15
-1,957	99,66
-1,967	99,37
-1,976	99,00
-1,985	98,73
-1,992	98,43
-1,998	98,08
-2,003	97,84
-2,007	97,56
-2,011	97,34
-2,012	97,25
-2,014	97,08
-2,014	96,89
-2,014	96,74
-2,014	96,59
-2,012	96,54
-2,007	96,49
-2,003	96,48
-1,998	96,54
-1,992	96,63
-1,984	96,79
-1,974	96,83
-1,965	96,96
-1,956	97,10
-1,945	97,24
-1,932	97,37
-1,918	97,51
-1,904	97,72
-1,888	98,01
-1,874	98,20
-1,857	98,55
-1,839	98,94
-1,821	99,26
-1,800	99,68
-1,780	100,18
-1,759	100,53
-1,737	101,08
-1,715	101,62
-1,692	102,06
-1,668	102,64
-1,641	103,14
-1,616	103,87
-1,590	104,51
-1,565	105,10
-1,538	105,86
-1,510	106,66
-1,481	107,32
-1,453	108,14
-1,423	109,01
-1,393	109,76
-1,363	110,71
-1,332	111,55
-1,302	112,61
-1,271	113,79
-1,239	114,66
-1,208	115,87
-1,175	117,15
-1,144	118,17
-1,112	119,50
-1,079	120,86
-1,046	121,92
-1,015	123,31
-0,982	124,39
-0,949	125,93
-0,916	127,46
-0,884	128,70
-0,853	130,27
-0,822	131,96
-0,790	133,44
-0,757	135,16
-0,726	136,97
-0,694	138,50
-0,664	140,39
-0,635	142,37
-0,605	143,99
-0,576	146,03
-0,548	147,64
-0,520	149,69
-0,492	151,69
-0,465	153,37
-0,438	155,40
-0,412	157,45
-0,386	159,11
-0,361	161,12
-0,338	163,19
-0,316	164,84
-0,294	167,10
-0,272	169,11
-0,251	170,81
-0,231	172,62
-0,210	174,57
-0,192	176,02
-0,173	177,88
-0,156	179,85
-0,140	181,35
-0,124	183,14
-0,110	184,85
-0,096	186,03
-0,083	187,54
-0,071	188,70
-0,060	190,10
-0,050	191,46
-0,041	192,59
-0,031	193,84
-0,025	194,86
-0,017	195,72
-0,013	196,67
-0,006	197,62
-0,003	198,27
0,000	198,98
0,003	199,59
0,005	199,81
0,006	200,26
0,006	200,66
0,005	200,88
0,003	201,07
0,002	201,01
-0,002	200,92
-0,006	200,69
-0,013	200,35
-0,019	200,12
-0,027	199,70
-0,035	199,31
-0,042	198,75
-0,052	198,01
-0,063	197,40
-0,074	196,53
-0,086	195,62
-0,099	194,90
-0,113	193,82
-0,129	192,71
-0,146	191,82
-0,162	190,55
-0,179	189,23
-0,196	188,19
-0,215	186,90
-0,236	185,51
-0,256	184,47
-0,278	182,88
-0,300	181,68
-0,324	180,03
-0,347	178,47
-0,371	177,21
-0,394	175,48
-0,421	173,68
-0,446	172,24
-0,474	170,38
-0,501	168,64
-0,529	167,10
-0,558	165,22
-0,586	163,52
-0,616	162,02
-0,646	160,10
-0,675	158,20
-0,705	156,56
-0,737	154,66
-0,768	152,68
-0,800	151,24
-0,831	149,37
-0,864	147,51
-0,895	146,07
-0,928	144,21
-0,961	142,37
-0,994	140,84
-1,026	138,92
-1,059	137,41
-1,092	135,62
-1,125	133,93
-1,158	132,63
-1,189	131,08
-1,222	129,50
-1,253	128,24
-1,285	126,61
-1,316	125,04
-1,348	123,80
-1,378	122,29
-1,407	121,16
-1,437	119,76
-1,467	118,45
-1,497	117,42
-1,524	116,20
-1,552	115,07
-1,579	114,12
-1,605	113,02
-1,630	111,87
-1,656	111,03
-1,679	109,97
-1,704	109,19
-1,726	108,20
-1,750	107,32
-1,772	106,68
-1,792	105,80
-1,811	105,06
-1,830	104,43
-1,849	103,66
-1,866	103,01
-1,882	102,48
-1,899	101,87
-1,913	101,32
-1,926	100,95
-1,938	100,41
-1,949	100,05
-1,960	99,66
-1,971	99,21
-1,981	98,90
-1,989	98,61
-1,995	98,28
-2,001	98,04
-2,004	97,80
-2,009	97,54
-2,011	97,39
-2,014	97,22
-2,014	97,08
-2,015	96,89
-2,014	96,77
-2,012	96,72
-2,009	96,68
-2,006	96,70
-2,001	96,71
-1,995	96,86
-1,989	96,92
-1,981	97,02
-1,971	97,11
-1,962	97,15
-1,951	97,25
-1,938	97,37
-1,926	97,51
-1,912	97,67
-1,898	97,89
-1,882	98,16
-1,866	98,52
-1,849	98,87
-1,832	99,26
-1,813	99,70
-1,792	100,04
-1,772	100,57
-1,750	101,05
-1,728	101,51
-1,706	102,08
-1,682	102,74
-1,657	103,23
-1,632	103,85
-1,607	104,54
-1,580	105,11
-1,552	105,75
-1,525	106,33
-1,499	107,12
-1,470	107,92
-1,440	108,63
-1,411	109,58
-1,381	110,53
-1,351	111,36
-1,321	112,43
-1,290	113,58
-1,258	114,47
-1,225	115,63
-1,194	116,56
-1,162	117,82
-1,129	119,02
-1,098	120,08
-1,067	121,36
-1,034	122,73
-1,001	123,84
-0,969	125,33
-0,936	126,92
-0,903	128,23
-0,870	129,78
-0,839	131,02
-0,807	132,72
-0,776	134,42
-0,745	135,80
-0,713	137,66
-0,682	139,57
-0,652	141,20
-0,622	143,22
-0,594	145,29
-0,564	146,96
-0,536	148,89
-0,509	150,89
-0,481	152,43
-0,454	154,40
-0,427	156,49
-0,401	158,20
-0,375	160,29
-0,352	162,46
-0,328	164,13
-0,306	166,29
-0,284	167,83
-0,262	169,82
-0,242	171,84
-0,221	173,32
-0,203	175,32
-0,184	177,12
-0,165	178,63
-0,149	180,47
-0,134	182,21
-0,119	183,56
-0,105	185,34
-0,091	186,84
-0,079	188,12
-0,068	189,73
-0,057	191,04
-0,046	191,90
-0,036	193,19
-0,028	194,48
-0,022	195,32
-0,016	196,37
-0,009	197,16
-0,006	197,88
-0,002	198,59
0,002	199,10
0,003	199,69
0,005	200,21
0,006	200,57
0,006	200,87
0,005	201,05
0,002	201,03
0,000	201,08
-0,005	200,94
-0,009	200,81
-0,014	200,54
-0,022	200,14
-0,028	199,70
-0,038	199,17
-0,047	198,51
-0,057	197,90
-0,068	197,09
-0,079	196,44
-0,091	195,51
-0,104	194,48
-0,118	193,56
-0,135	192,53
-0,151	191,34
-0,168	190,29
-0,187	189,05
-0,204	187,82
-0,223	186,65
-0,243	185,30
-0,264	183,78
-0,287	182,49
-0,309	180,87
-0,331	179,22
-0,355	177,97
-0,380	176,31
-0,404	174,98
-0,430	173,35
-0,457	171,54
-0,484	170,10
-0,512	168,13
-0,540	166,30
-0,569	164,86
-0,597	163,14
-0,627	161,26
-0,657	159,65
-0,686	157,78
-0,718	155,84
-0,748	154,30
-0,779	152,33
-0,812	150,31
-0,844	148,82
-0,877	146,87
-0,908	145,09
-0,941	143,61
-0,972	141,78
-1,005	139,99
-1,038	138,63
-1,071	136,76
-1,104	134,99
-1,137	133,53
-1,170	131,81
-1,202	130,46
-1,233	128,84
-1,264	127,28
-1,296	126,09
-1,327	124,57
-1,359	123,03
-1,389	121,89
-1,420	120,41
-1,448	119,03
-1,478	117,97
-1,506	116,69
-1,535	115,72
-1,561	114,52
-1,588	113,42
-1,615	112,55
-1,640	111,53
-1,665	110,49
-1,689	109,63
-1,712	108,63
-1,736	107,67
-1,758	106,93
-1,780	106,08
-1,799	105,43
-1,819	104,69
-1,836	104,06
-1,855	103,50
-1,872	102,86
-1,888	102,24
-1,904	101,72
-1,918	101,11
-1,931	100,53
-1,943	100,09
-1,954	99,60
-1,965	99,28
-1,974	98,97
-1,982	98,64
-1,990	98,36
-1,996	98,12
-2,003	97,80
-2,006	97,58
-2,009	97,39
-2,012	97,19
-2,014	97,01
-2,014	96,87
-2,015	96,76
-2,014	96,71
-2,012	96,62
-2,009	96,62
-2,004	96,65
-2,000	96,69
-1,993	96,73
-1,985	96,79
-1,976	96,85
-1,968	97,05
-1,959	97,14
-1,948	97,25
-1,935	97,45
-1,921	97,68
-1,907	97,90
-1,893	98,15
-1,877	98,47
-1,861	98,76
-1,843	99,15
-1,825	99,51
-1,805	99,82
-1,784	100,24
-1,764	100,60
-1,742	101,05
-1,720	101,58
-1,698	102,04
-1,673	102,64
-1,648	103,29
-1,623	103,84
-1,598	104,50
-1,569	105,25
-1,543	105,87
-1,516	106,65
-1,488	107,47
-1,459	108,08
-1,431	109,00
-1,400	109,70
-1,370	110,67
-1,340	111,67
-1,310	112,58
-1,279	113,64
-1,247	114,80
-1,214	115,79
-1,183	117,00
-1,150	118,26
-1,118	119,28
-1,087	120,55
-1,056	121,66
-1,023	122,97
-0,990	124,39
-0,957	125,59
-0,924	127,19
-0,892	128,78
-0,859	130,10
-0,828	131,72
-0,796	133,44
-0,765	134,78
-0,734	136,59
-0,704	138,05
-0,672	140,03
-0,642	141,98
-0,613	143,69
-0,583	145,73
-0,554	147,72
-0,526	149,37
-0,498	151,30
-0,471	153,26
-0,445	154,85
-0,418	156,93
-0,393	159,01
-0,368	160,79
-0,344	162,89
-0,320	164,96
-0,298	166,67
-0,276	168,66
-0,256	170,62
-0,236	172,08
-0,215	173,87
-0,196	175,74
-0,178	177,30
-0,160	179,36
-0,145	180,86
-0,129	182,76
-0,113	184,37
-0,099	185,68
-0,086	187,24
-0,074	188,71
-0,063	189,90
-0,052	191,32
-0,042	192,55
-0,033	193,58
-0,025	194,55
-0,019	195,62
-0,013	196,37
-0,008	197,31
-0,005	198,20
0,000	198,78
0,002	199,31
0,005	199,79
0,005	200,24
0,006	200,67
0,005	200,84
0,003	201,13
0,002	201,15
-0,002	201,16
-0,005	201,00
-0,011	200,75
-0,017	200,38
-0,024	199,89
-0,031	199,40
-0,041	198,97
-0,050	198,28
-0,060	197,50
-0,071	196,81
-0,082	195,96
-0,094	195,00
-0,108	194,17
-0,124	193,19
-0,140	192,32
-0,157	191,22
-0,174	189,82
-0,192	188,78
-0,210	187,42
-0,229	186,09
-0,250	184,88
-0,272	183,36
-0,294	181,76
-0,317	180,50
-0,341	178,79
-0,364	177,21
-0,388	175,96
-0,413	174,34
-0,438	172,57
-0,465	171,11
-0,493	169,21
-0,522	167,34
-0,550	165,87
-0,580	163,95
-0,608	162,21
-0,638	160,74
-0,668	158,79
-0,697	157,22
-0,727	155,38
-0,759	153,39
-0,790	151,95
-0,823	149,91
-0,855	147,99
-0,886	146,49
-0,919	144,63
-0,952	142,81
-0,983	141,40
-1,016	139,55
-1,049	137,77
-1,082	136,32
-1,115	134,60
-1,148	132,85
-1,180	131,49
-1,213	129,84
-1,244	128,48
-1,275	126,89
-1,307	125,38
-1,338	124,11
-1,368	122,68
-1,400	121,28
-1,429	120,22
-1,459	118,85
-1,488	117,53
-1,516	116,58
-1,544	115,35
-1,571	114,43
-1,598	113,29
-1,623	112,22
-1,648	111,36
-1,673	110,32
-1,696	109,37
-1,720	108,63
-1,744	107,65
-1,766	106,80
-1,786	106,15
-1,805	105,29
-1,825	104,69
-1,843	103,98
-1,861	103,26
-1,877	102,74
-1,893	102,19
-1,909	101,68
-1,923	101,21
-1,935	100,75
-1,946	100,27
-1,959	99,88
-1,968	99,43
-1,978	99,02
-1,985	98,68
-1,993	98,37
-2,000	98,13
-2,004	97,78
-2,007	97,55
-2,011	97,37
-2,012	97,20
-2,014	97,01
-2,015	96,91
-2,015	96,78
-2,014	96,76
-2,011	96,76
-2,007	96,73
-2,003	96,78
-1,996	96,81
-1,990	96,85
-1,982	96,91
-1,974	97,01
-1,965	97,15
-1,954	97,25
-1,943	97,42
-1,931	97,65
-1,916	97,80
-1,902	98,05
-1,888	98,29
-1,872	98,61
-1,855	99,01
-1,838	99,27
-1,819	99,68
-1,799	100,10
-1,778	100,47
-1,756	100,93
-1,736	101,42
-1,714	101,80
-1,690	102,40
-1,665	102,89
-1,640	103,50
-1,615	104,17
-1,588	104,74
-1,561	105,46
-1,535	106,24
-1,506	106,91
-1,480	107,69
-1,450	108,52
-1,422	109,27
-1,392	110,21
-1,360	110,97
-1,330	112,02
-1,299	113,14
-1,268	114,04
-1,236	115,18
-1,205	116,33
-1,172	117,31
-1,140	118,56
-1,109	119,88
-1,078	120,95
-1,045	122,29
-1,012	123,36
-0,979	124,82
-0,946	126,30
-0,914	127,59
-0,881	129,08
-0,850	130,84
-0,818	132,14
-0,787	133,86
-0,756	135,58
-0,724	137,05
-0,693	138,96
-0,663	140,53
-0,631	142,60
-0,602	144,65
-0,573	146,33
-0,545	148,37
-0,518	150,20
-0,490	151,70
-0,463	153,62
-0,437	155,63
-0,410	157,24
-0,385	159,41
-0,360	161,51
-0,336	163,27
-0,314	165,38
-0,292	167,48
-0,270	169,10
-0,250	171,10
-0,229	173,05
-0,209	174,63
-0,190	176,42
-0,171	178,25
-0,156	179,78
-0,140	181,75
-0,124	183,12
-0,110	184,76
-0,096	186,22
-0,083	187,38
-0,071	188,84
-0,060	190,33
-0,049	191,51
-0,039	192,76
-0,031	194,02
-0,024	194,93
-0,017	195,99
-0,011	196,86
-0,006	197,60
-0,003	198,28
0,000	199,06
0,003	199,59
0,005	200,08
0,005	200,45
0,005	200,76
0,005	201,00
0,003	201,13
0,002	201,14
-0,003	200,98
-0,008	200,85
-0,013	200,54
-0,019	200,22
-0,027	199,86
-0,035	199,42
-0,042	198,78
-0,053	198,19
-0,063	197,40
-0,075	196,68
-0,086	195,89
-0,099	194,86
-0,113	193,86
-0,129	192,99
-0,146	191,84
-0,162	190,60
-0,179	189,58
-0,198	188,31
-0,215	187,17
-0,236	185,87
-0,256	184,43
-0,278	183,05
-0,302	181,51
-0,324	179,85
-0,347	178,68
-0,371	176,99
-0,396	175,31
-0,421	173,88
-0,446	172,13
-0,474	170,43
-0,501	168,92
-0,529	167,15
-0,558	165,29
-0,587	163,84
-0,617	161,96
-0,646	160,01
-0,675	158,44
-0,705	156,60
-0,737	155,15
-0,768	153,23
-0,800	151,28
-0,833	149,65
-0,864	147,78
-0,897	145,83
-0,928	144,32
-0,961	142,52
-0,994	140,74
-1,026	139,35
-1,059	137,53
-1,092	135,71
-1,125	134,31
-1,158	132,56
-1,191	130,81
-1,222	129,37
-1,253	127,74
-1,285	126,49
-1,316	124,94
-1,346	123,52
-1,378	122,27
-1,407	120,91
-1,439	119,49
-1,467	118,38
-1,497	117,10
-1,524	115,87
-1,552	114,92
-1,579	113,79
-1,605	112,82
-1,630	111,74
-1,656	110,72
-1,679	109,91
-1,704	108,96
-1,726	108,00
-1,750	107,24
-1,770	106,38
-1,791	105,58
-1,811	104,96
-1,830	104,29
-1,847	103,52
-1,865	103,01
-1,882	102,38
-1,898	101,93
-1,913	101,37
-1,926	100,85
-1,938	100,47
-1,949	99,99
-1,960	99,54
-1,970	99,26
-1,979	98,89
-1,987	98,66
-1,995	98,31
-2,001	98,05
-2,006	97,85
-2,009	97,63
-2,011	97,41
-2,012	97,27
-2,014	97,11
-2,014	96,94
-2,014	96,87
-2,014	96,84
-2,011	96,83
-2,006	96,77
-2,001	96,85
-1,995	96,93
-1,989	96,93
-1,981	97,02
-1,971	97,08
-1,962	97,21
-1,951	97,37
-1,938	97,50
-1,926	97,69
-1,913	97,94
-1,899	98,17
-1,883	98,46
-1,868	98,69
-1,850	99,04
-1,832	99,46
-1,813	99,76
-1,792	100,19
-1,772	100,66
-1,751	101,04
-1,729	101,58
-1,707	102,06
-1,684	102,53
-1,659	103,19
-1,634	103,67
-1,607	104,32
-1,580	105,11
-1,554	105,62
-1,527	106,42
-1,499	107,22
-1,472	107,87
-1,442	108,72
-1,412	109,63
-1,382	110,42
-1,352	111,42
-1,321	112,27
-1,291	113,33
-1,260	114,50
-1,228	115,44
-1,195	116,65
-1,164	117,86
-1,133	118,90
-1,100	120,13
-1,068	121,45
-1,035	122,51
-1,004	123,95
-0,971	125,10
-0,938	126,66
-0,905	128,18
-0,873	129,48
-0,842	131,15
-0,811	132,87
-0,778	134,20
-0,748	136,00
-0,716	137,49
-0,685	139,42
-0,653	141,45
-0,624	143,04
-0,595	145,06
-0,565	147,05
-0,539	148,66
-0,511	150,52
-0,484	152,50
-0,456	154,06
-0,429	156,13
-0,402	158,29
-0,377	160,04
-0,353	162,15
-0,331	164,22
-0,308	165,78
-0,286	167,84
-0,265	169,81
-0,243	171,38
-0,223	173,28
-0,204	175,19
-0,185	176,78
-0,168	178,67
-0,151	180,17
-0,135	182,02
-0,121	183,76
-0,105	185,11
-0,093	186,51
-0,080	188,18
-0,068	189,29
-0,057	190,79
-0,047	192,18
-0,038	193,11
-0,028	194,24
-0,022	195,35
-0,016	196,15
-0,011	197,15
-0,006	197,99
-0,002	198,64
0,002	199,20
0,003	199,71
0,005	200,14
0,006	200,57
0,006	200,79
0,005	201,05
0,003	201,20
0,000	201,17
-0,003	200,97
-0,008	200,73
-0,014	200,52
-0,020	200,25
-0,028	199,69
-0,036	199,26
-0,046	198,66
-0,057	197,93
-0,066	197,27
-0,079	196,33
-0,090	195,42
-0,102	194,66
-0,116	193,59
-0,132	192,43
-0,148	191,53
-0,167	190,24
-0,184	189,23
-0,203	187,89
-0,221	186,53
-0,240	185,44
-0,261	183,93
-0,283	182,35
-0,305	181,12
-0,328	179,53
-0,352	177,89
-0,377	176,65
-0,402	175,05
-0,427	173,21
-0,454	171,79
-0,481	170,05
-0,507	168,19
-0,536	166,63
-0,564	164,91
-0,594	163,05
-0,624	161,58
-0,653	159,68
-0,683	158,14
-0,713	156,26
-0,745	154,35
-0,774	152,84
-0,807	150,96
-0,839	148,98
-0,870	147,47
-0,903	145,51
-0,936	143,61
-0,968	142,20
-1,001	140,33
-1,032	138,54
-1,065	137,18
-1,098	135,43
-1,131	133,71
-1,164	132,27
-1,197	130,54
-1,228	129,26
-1,260	127,67
-1,291	126,13
-1,323	125,00
-1,354	123,44
-1,384	122,01
-1,414	120,90
-1,444	119,51
-1,473	118,20
-1,502	117,13
-1,530	115,95
-1,557	114,92
-1,585	113,78
-1,610	112,61
-1,637	111,78
-1,660	110,74
-1,684	109,76
-1,707	108,95
-1,731	107,99
-1,753	107,14
-1,775	106,46
-1,795	105,62
-1,816	104,96
-1,835	104,26
-1,852	103,49
-1,869	102,99
-1,885	102,29
-1,901	101,66
-1,915	101,25
-1,929	100,68
-1,942	100,27
-1,953	99,86
-1,962	99,47
-1,973	99,14
-1,981	98,75
-1,989	98,48
-1,996	98,21
-2,001	97,95
-2,006	97,72
-2,009	97,55
-2,012	97,41
-2,014	97,27
-2,014	97,19
-2,014	97,08
-2,014	96,93
-2,012	96,93
-2,011	96,82
-2,006	96,82
-2,000	96,88
-1,993	96,93
-1,987	97,03
-1,979	97,06
-1,970	97,15
-1,960	97,24
-1,949	97,42
-1,937	97,55
-1,924	97,63
-1,910	97,85
-1,896	98,07
-1,880	98,35
-1,865	98,64
-1,847	98,95
-1,828	99,31
-1,810	99,71
-1,789	100,05
-1,769	100,53
-1,747	100,99
-1,725	101,41
-1,703	101,99
-1,679	102,43
-1,654	103,10
-1,629	103,76
-1,602	104,38
-1,576	105,03
-1,549	105,77
-1,522	106,45
-1,494	107,20
-1,466	107,99
-1,437	108,72
-1,407	109,55
-1,378	110,34
-1,348	111,29
-1,316	112,35
-1,285	113,24
-1,253	114,40
-1,222	115,56
-1,191	116,54
-1,158	117,79
-1,126	119,06
-1,095	120,13
-1,062	121,47
-1,030	122,83
-0,997	123,99
-0,964	125,42
-0,931	126,66
-0,900	128,26
-0,867	129,91
-0,836	131,15
-0,804	132,91
-0,773	134,55
-0,741	135,99
-0,710	137,84
-0,680	139,73
-0,649	141,32
-0,619	143,43
-0,589	145,03
-0,561	147,12
-0,533	149,17
-0,506	150,73
-0,478	152,67
-0,451	154,55
-0,424	156,19
-0,399	158,26
-0,374	160,30
-0,350	161,99
-0,327	164,13
-0,305	166,26
-0,283	168,00
-0,261	170,00
-0,240	171,99
-0,220	173,43
-0,201	175,26
-0,182	177,17
-0,165	178,65
-0,148	180,62
-0,132	182,39
-0,118	183,75
-0,104	185,30
-0,090	186,52
-0,079	188,02
-0,066	189,64
-0,055	190,76
-0,046	192,01
-0,036	193,38
-0,028	194,27
-0,020	195,32
-0,014	196,34
-0,009	196,98
-0,005	197,80
-0,002	198,52
0,002	199,08
0,003	199,67
0,005	200,11
0,006	200,51
0,005	200,77
0,005	200,85
0,003	201,05
0,000	201,05
-0,005	200,80
-0,009	200,70
-0,016	200,36
-0,022	200,04
-0,030	199,57
-0,038	198,96
-0,047	198,44
-0,057	197,73
-0,068	196,88
-0,080	196,15
-0,093	195,22
-0,105	194,26
-0,119	193,45
-0,135	192,41
-0,152	191,29
-0,170	190,22
-0,187	188,95
-0,206	187,84
-0,225	186,56
-0,245	185,15
-0,265	184,05
-0,287	182,54
-0,309	180,83
-0,333	179,46
-0,357	177,78
-0,382	176,06
-0,405	174,71
-0,432	173,00
-0,457	171,25
-0,485	169,89
-0,512	168,00
-0,540	166,18
-0,570	164,72
-0,598	162,87
-0,628	161,01
-0,658	159,56
-0,688	157,73
-0,718	156,20
-0,749	154,31
-0,781	152,30
-0,812	150,73
-0,845	148,69
-0,877	146,81
-0,909	145,31
-0,941	143,57
-0,974	141,78
-1,007	140,28
-1,038	138,39
-1,071	136,61
-1,104	135,17
-1,139	133,41
-1,170	131,66
-1,203	130,40
-1,235	128,78
-1,266	127,51
-1,297	125,92
-1,327	124,37
-1,359	123,20
-1,390	121,68
-1,420	120,32
-1,450	119,18
-1,480	117,92
-1,508	116,75
-1,536	115,79
-1,563	114,64
-1,588	113,73
-1,615	112,60
-1,640	111,48
-1,665	110,63
-1,689	109,59
-1,712	108,56
-1,736	107,85
-1,758	106,93
-1,780	106,12
-1,800	105,46
-1,819	104,72
-1,838	104,17
-1,855	103,49
-1,871	102,86
-1,888	102,30
-1,904	101,69
-1,918	101,12
-1,931	100,71
-1,943	100,20
-1,954	99,77
-1,963	99,44
-1,974	99,05
-1,982	98,78
-1,990	98,47
-1,996	98,20
-2,003	97,98
-2,007	97,77
-2,011	97,55
-2,012	97,41
-2,014	97,23
-2,014	97,07
-2,015	96,95
-2,014	96,83
-2,012	96,80
-2,009	96,80
-2,004	96,74
-2,000	96,70
-1,993	96,77
-1,985	96,76
-1,978	96,81
-1,968	96,87
-1,957	97,01
-1,946	97,11
-1,934	97,31
-1,921	97,44
-1,907	97,71
-1,893	97,99
-1,877	98,25
-1,861	98,54
-1,844	98,91
-1,825	99,19
-1,805	99,62
-1,786	100,11
-1,764	100,43
-1,744	100,92
-1,722	101,48
-1,698	101,96
-1,674	102,51
-1,649	103,08
-1,624	103,78
-1,598	104,48
-1,571	105,04
-1,544	105,80
-1,516	106,59
-1,489	107,23
-1,461	108,08
-1,431	108,93
-1,401	109,67
-1,371	110,58
-1,341	111,35
-1,310	112,37
-1,279	113,44
-1,247	114,38
-1,216	115,58
-1,184	116,85
-1,151	117,91
-1,120	119,23
-1,089	120,57
-1,056	121,60
-1,024	122,99
-0,991	124,22
-0,958	125,60
-0,925	127,13
-0,894	128,36
-0,861	129,98
-0,829	131,64
-0,798	133,01
-0,768	134,76
-0,737	136,57
-0,705	138,09
-0,674	140,13
-0,642	141,64
-0,613	143,63
-0,584	145,62
-0,556	147,24
-0,528	149,22
-0,501	151,25
-0,473	152,87
-0,446	154,80
-0,419	156,81
-0,393	158,47
-0,369	160,57
-0,346	162,71
-0,322	164,50
-0,300	166,64
-0,278	168,78
-0,258	170,28
-0,237	172,18
-0,217	173,96
-0,196	175,44
-0,179	177,36
-0,162	179,22
-0,145	180,71
-0,130	182,59
-0,115	184,02
-0,101	185,58
-0,088	187,09
-0,075	188,31
-0,064	189,85
-0,053	191,35
-0,044	192,38
-0,035	193,46
-0,027	194,53
-0,020	195,35
-0,014	196,34
-0,009	197,34
-0,005	197,91
0,000	198,56
0,002	199,15
0,005	199,72
0,005	200,20
0,006	200,48
0,005	200,81
0,003	200,93
0,002	200,99
-0,002	201,06
-0,005	201,08
-0,009	200,82
-0,016	200,48
-0,024	199,97
-0,031	199,45
-0,039	198,93
-0,049	198,25
-0,060	197,62
-0,071	196,84
-0,082	195,94
-0,094	195,24
-0,108	194,23
-0,123	193,28
-0,138	192,31
-0,156	191,28
-0,173	190,23
-0,190	188,81
-0,209	187,47
-0,228	186,38
-0,248	185,06
-0,270	183,65
-0,292	182,33
-0,314	180,64
-0,338	178,98
-0,361	177,59
-0,386	176,09
-0,410	174,31
-0,437	172,88
-0,463	171,06
-0,490	169,27
-0,518	167,84
-0,547	166,04
-0,576	164,25
-0,605	162,77
-0,635	160,81
-0,664	159,31
-0,694	157,35
-0,724	155,45
-0,756	154,03
-0,787	152,04
-0,820	150,05
-0,851	148,47
-0,883	146,61
-0,916	144,79
-0,947	143,37
-0,980	141,49
-1,013	139,61
-1,045	138,13
-1,078	136,30
-1,112	134,53
-1,144	133,20
-1,177	131,44
-1,210	130,09
-1,241	128,48
-1,272	126,95
-1,304	125,72
-1,334	124,17
-1,365	122,74
-1,396	121,60
-1,426	120,23
-1,456	118,88
-1,484	117,87
-1,513	116,64
-1,541	115,68
-1,568	114,49
-1,594	113,29
-1,619	112,40
-1,646	111,27
-1,670	110,26
-1,693	109,41
-1,717	108,51
-1,739	107,63
-1,762	106,95
-1,783	106,17
-1,803	105,54
-1,822	104,81
-1,841	104,06
-1,858	103,49
-1,876	102,79
-1,891	102,10
-1,907	101,63
-1,921	101,09
-1,934	100,55
-1,946	100,17
-1,956	99,78
-1,967	99,46
-1,976	99,12
-1,984	98,78
-1,992	98,54
-1,998	98,27
-2,004	97,98
-2,007	97,79
-2,011	97,63
-2,012	97,47
-2,014	97,31
-2,015	97,16
-2,015	97,05
-2,014	96,95
-2,012	96,94
-2,007	96,85
-2,003	96,86
-1,998	96,85
-1,992	96,89
-1,984	96,90
-1,976	97,02
-1,967	97,13
-1,956	97,22
-1,945	97,36
-1,932	97,50
-1,918	97,67
-1,905	97,89
-1,890	98,14
-1,874	98,44
-1,857	98,71
-1,839	99,12
-1,821	99,55
-1,802	99,90
-1,781	100,27
-1,761	100,69
-1,739	101,18
-1,717	101,65
-1,693	102,08
-1,670	102,65
-1,645	103,31
-1,618	103,84
-1,593	104,56
-1,566	105,36
-1,538	105,99
-1,511	106,81
-1,483	107,57
-1,455	108,25
-1,425	109,08
-1,395	109,81
-1,365	110,78
-1,335	111,80
-1,304	112,68
-1,272	113,88
-1,241	114,99
-1,210	115,99
-1,178	117,29
-1,145	118,53
-1,114	119,54
-1,082	120,74
-1,049	121,71
-1,016	123,12
-0,985	124,61
-0,952	125,80
-0,919	127,44
-0,886	129,09
-0,855	130,37
-0,823	131,98
-0,792	133,58
-0,762	134,98
-0,730	136,73
-0,699	138,26
-0,668	140,22
-0,638	142,28
-0,606	143,90
-0,578	145,99
-0,550	148,04
-0,523	149,63
-0,495	151,56
-0,468	153,53
-0,440	155,10
-0,413	157,16
-0,388	159,27
-0,364	160,92
-0,341	163,06
-0,317	165,25
-0,295	166,96
-0,273	168,98
-0,253	170,97
-0,232	172,52
-0,212	174,37
-0,193	176,20
-0,176	177,74
-0,159	179,61
-0,141	181,15
-0,126	182,86
-0,112	184,57
-0,097	185,82
-0,085	187,25
-0,074	188,78
-0,063	189,97
-0,052	191,38
-0,042	192,75
-0,033	193,71
-0,025	194,83
-0,019	195,88
-0,013	196,73
-0,008	197,73
-0,003	198,45
0,000	199,01
0,003	199,48
0,005	199,89
0,005	200,32
0,006	200,75
0,005	200,99
0,003	201,07
0,002	201,14
-0,002	201,13
-0,006	200,88
-0,011	200,66
-0,017	200,52
-0,025	199,93
-0,033	199,41
-0,041	198,92
-0,050	198,27
-0,061	197,47
-0,072	196,77
-0,085	195,88
-0,097	194,88
-0,110	194,14
-0,126	193,03
-0,141	192,12
-0,159	190,91
-0,176	189,69
-0,195	188,67
-0,214	187,32
-0,232	186,00
-0,253	184,75
-0,273	183,28
-0,295	181,67
-0,319	180,33
-0,342	178,62
-0,366	176,93
-0,391	175,63
-0,416	174,04
-0,441	172,25
-0,468	170,85
-0,496	169,13
-0,523	167,30
-0,553	165,83
-0,581	164,04
-0,609	162,50
-0,639	160,66
-0,669	158,65
-0,701	157,10
-0,730	155,18
-0,762	153,31
-0,793	151,63
-0,825	149,73
-0,858	147,76
-0,889	146,27
-0,922	144,50
-0,955	142,62
-0,986	141,21
-1,019	139,42
-1,051	137,68
-1,084	136,27
-1,117	134,40
-1,150	132,62
-1,183	131,17
-1,216	129,54
-1,247	128,31
-1,279	126,74
-1,310	125,16
-1,340	123,97
-1,371	122,51
-1,401	121,14
-1,431	120,04
-1,461	118,77
-1,491	117,45
-1,519	116,55
-1,546	115,30
-1,572	114,35
-1,599	113,25
-1,626	112,09
-1,651	111,23
-1,674	110,18
-1,698	109,19
-1,722	108,40
-1,744	107,43
-1,766	106,59
-1,788	105,96
-1,808	105,22
-1,827	104,58
-1,844	103,92
-1,861	103,23
-1,879	102,71
-1,894	102,08
-1,909	101,58
-1,923	101,10
-1,935	100,56
-1,948	100,17
-1,959	99,82
-1,968	99,38
-1,978	99,07
-1,985	98,66
-1,993	98,31
-2,000	98,04
-2,004	97,76
-2,007	97,48
-2,011	97,34
-2,012	97,14
-2,014	96,99
-2,014	96,85
-2,014	96,81
-2,014	96,73
-2,011	96,67
-2,007	96,69
-2,003	96,65
-1,996	96,67
-1,990	96,76
-1,982	96,80
-1,973	96,87
-1,963	97,02
-1,954	97,09
-1,942	97,22
-1,931	97,41
-1,916	97,61
-1,902	97,89
-1,887	98,10
-1,871	98,46
-1,854	98,80
-1,836	99,12
-1,817	99,51
-1,799	99,93
-1,777	100,31
-1,756	100,79
-1,734	101,19
-1,712	101,73
-1,689	102,28
-1,665	102,77
-1,640	103,40
-1,615	104,08
-1,588	104,64
-1,561	105,37
-1,533	106,13
-1,506	106,78
-1,478	107,63
-1,450	108,26
-1,420	109,17
-1,390	110,10
-1,360	110,95
-1,329	112,03
-1,299	113,10
-1,268	113,94
-1,236	115,15
-1,203	116,29
-1,172	117,25
-1,140	118,46
-1,107	119,49
-1,076	120,80
-1,043	122,19
-1,012	123,38
-0,979	124,86
-0,946	126,37
-0,913	127,61
-0,880	129,14
-0,848	130,78
-0,818	132,17
-0,787	133,82
-0,756	135,23
-0,724	137,09
-0,693	138,95
-0,663	140,54
-0,631	142,59
-0,602	144,60
-0,573	146,21
-0,545	148,26
-0,517	150,12
-0,490	151,65
-0,462	153,65
-0,435	155,67
-0,410	157,39
-0,385	159,56
-0,360	161,61
-0,336	163,33
-0,314	165,44
-0,292	167,50
-0,270	169,19
-0,250	171,06
-0,229	172,72
-0,209	174,63
-0,190	176,58
-0,171	178,13
-0,156	179,95
-0,138	181,79
-0,124	183,11
-0,110	184,67
-0,096	186,23
-0,083	187,41
-0,071	188,98
-0,060	190,55
-0,050	191,57
-0,039	192,76
-0,031	194,08
-0,024	194,96
-0,017	196,01
-0,011	196,91
-0,006	197,63
-0,003	198,45
0,000	199,03
0,003	199,56
0,005	200,13
0,005	200,41
0,005	200,73
0,005	200,94
0,003	201,05
0,002	201,06
-0,002	201,04
-0,006	200,91
-0,013	200,70
-0,019	200,18
-0,027	199,84
-0,035	199,44
-0,042	198,78
-0,052	198,12
-0,063	197,40
-0,074	196,48
-0,086	195,77
-0,099	194,85
-0,113	194,00
-0,129	192,95
-0,145	191,92
-0,162	191,00
-0,179	189,68
-0,198	188,28
-0,217	187,20
-0,236	185,86
-0,256	184,43
-0,278	183,11
-0,300	181,55
-0,324	179,95
-0,347	178,62
-0,371	176,97
-0,394	175,33
-0,421	173,90
-0,446	172,15
-0,473	170,69
-0,501	168,95
-0,529	167,13
-0,558	165,70
-0,586	163,82
-0,616	161,94
-0,646	160,45
-0,675	158,52
-0,705	156,63
-0,737	155,07
-0,768	153,16
-0,800	151,16
-0,831	149,60
-0,864	147,76
-0,895	145,81
-0,928	144,37
-0,960	142,59
-0,993	140,76
-1,024	139,32
-1,057	137,45
-1,090	135,65
-1,123	134,15
-1,156	132,40
-1,189	131,04
-1,221	129,36
-1,252	127,78
-1,283	126,45
-1,315	124,91
-1,346	123,41
-1,376	122,31
-1,407	120,86
-1,437	119,51
-1,467	118,49
-1,495	117,21
-1,524	116,25
-1,550	115,11
-1,577	113,93
-1,604	113,08
-1,629	111,87
-1,654	110,84
-1,679	109,91
-1,703	108,95
-1,725	107,97
-1,748	107,28
-1,770	106,42
-1,791	105,86
-1,811	105,11
-1,830	104,41
-1,847	103,84
-1,865	103,27
-1,882	102,55
-1,898	102,07
-1,912	101,48
-1,926	100,93
-1,938	100,52
-1,949	100,03
-1,960	99,69
-1,970	99,29
-1,979	98,92
-1,987	98,65
-1,995	98,27
-2,001	97,98
-2,004	97,75
-2,009	97,55
-2,011	97,34
-2,012	97,15
-2,014	97,01
-2,015	96,91
-2,014	96,80
-2,014	96,74
-2,011	96,65
-2,006	96,63
-2,001	96,67
-1,996	96,73
-1,989	96,82
-1,981	96,90
-1,973	97,02
-1,962	97,15
-1,951	97,29
-1,940	97,41
-1,927	97,58
-1,913	97,77
-1,899	98,02
-1,883	98,27
-1,868	98,56
-1,850	98,94
-1,833	99,26
-1,814	99,57
-1,794	99,99
-1,773	100,43
-1,751	100,79
-1,731	101,28
-1,707	101,73
-1,684	102,26
-1,660	102,88
-1,635	103,41
-1,608	104,08
-1,582	104,81
-1,555	105,45
-1,528	106,20
-1,500	106,99
-1,472	107,73
-1,444	108,54
-1,415	109,27
-1,385	110,30
-1,354	111,25
-1,324	112,08
-1,293	113,19
-1,261	114,37
-1,230	115,22
-1,197	116,44
-1,166	117,63
-1,134	118,63
-1,101	119,89
-1,070	120,99
-1,038	122,30
-1,005	123,69
-0,972	124,89
-0,939	126,49
-0,906	127,97
-0,875	129,30
-0,844	130,95
-0,812	132,32
-0,781	133,98
-0,749	135,73
-0,718	137,23
-0,686	139,19
-0,657	141,13
-0,625	142,73
-0,597	144,79
-0,569	146,77
-0,540	148,41
-0,512	150,32
-0,485	152,22
-0,457	153,79
-0,430	155,85
-0,405	157,99
-0,379	159,67
-0,355	161,97
-0,331	163,93
-0,309	165,74
-0,287	167,70
-0,267	169,62
-0,245	171,20
-0,225	173,11
-0,206	175,14
-0,187	176,70
-0,168	178,59
-0,152	180,09
-0,137	181,86
-0,121	183,57
-0,107	184,84
-0,093	186,43
-0,080	187,93
-0,069	189,11
-0,058	190,67
-0,047	191,98
-0,038	193,02
-0,030	194,15
-0,022	195,21
-0,016	196,10
-0,011	197,08
-0,006	197,78
-0,002	198,49
0,002	199,10
0,003	199,63
0,005	200,25
0,005	200,56
0,006	200,82
0,005	200,99
0,003	201,12
0,000	201,07
-0,003	200,89
-0,008	200,72
-0,014	200,54
-0,020	200,17
-0,028	199,68
-0,036	199,26
-0,044	198,69
-0,055	197,85
-0,066	197,28
-0,077	196,41
-0,090	195,61
-0,102	194,67
-0,116	193,67
-0,132	192,76
-0,148	191,59
-0,165	190,34
-0,182	189,30
-0,201	188,11
-0,220	186,71
-0,239	185,62
-0,261	184,16
-0,283	182,62
-0,305	181,34
-0,327	179,68
-0,350	178,02
-0,375	176,62
-0,399	174,96
-0,424	173,21
-0,451	171,89
-0,479	169,98
-0,506	168,59
-0,534	166,84
-0,562	165,02
-0,592	163,54
-0,620	161,71
-0,650	159,72
-0,680	158,19
-0,712	156,28
-0,741	154,41
-0,773	152,87
-0,804	150,86
-0,837	148,97
-0,869	147,39
-0,902	145,52
-0,933	143,64
-0,966	142,18
-0,999	140,43
-1,032	138,67
-1,063	137,21
-1,096	135,39
-1,129	133,58
-1,162	132,17
-1,195	130,51
-1,227	129,18
-1,258	127,47
-1,290	125,93
-1,321	124,65
-1,351	123,17
-1,382	121,73
-1,412	120,56
-1,442	119,25
-1,472	118,02
-1,500	117,02
-1,528	115,88
-1,555	114,94
-1,582	113,82
-1,608	112,68
-1,635	111,78
-1,659	110,67
-1,682	109,66
-1,706	108,83
-1,729	107,92
-1,751	107,05
-1,773	106,40
-1,794	105,61
-1,814	104,98
-1,833	104,25
-1,850	103,58
-1,868	103,01
-1,883	102,39
-1,899	101,85
-1,915	101,35
-1,927	100,81
-1,940	100,33
-1,951	99,88
-1,962	99,49
-1,971	99,14
-1,981	98,77
-1,989	98,40
-1,995	98,15
-2,001	97,90
-2,006	97,67
-2,009	97,50
-2,012	97,31
-2,014	97,18
-2,014	97,02
-2,015	96,97
-2,014	96,86
-2,012	96,75
-2,009	96,75
-2,006	96,71
-2,000	96,71
-1,995	96,76
-1,987	96,78
-1,979	96,85
-1,970	96,90
-1,960	96,96
-1,949	97,08
-1,938	97,18
-1,924	97,39
-1,912	97,60
-1,896	97,84
-1,882	98,19
-1,865	98,49
-1,849	98,81
-1,830	99,21
-1,811	99,60
-1,791	99,94
-1,770	100,45
-1,748	100,76
-1,726	101,30
-1,704	101,80
-1,681	102,28
-1,656	102,88
-1,630	103,55
-1,605	104,07
-1,579	104,81
-1,550	105,52
-1,524	106,16
-1,495	106,96
-1,469	107,64
-1,439	108,50
-1,409	109,40
-1,379	110,17
-1,349	111,10
-1,319	112,22
-1,288	113,06
-1,257	114,24
-1,224	115,47
-1,192	116,42
-1,161	117,67
-1,128	118,63
-1,096	119,91
-1,065	121,16
-1,032	122,30
-1,001	123,73
-0,968	125,30
-0,933	126,54
-0,902	128,14
-0,870	129,81
-0,839	131,10
-0,807	132,69
-0,776	134,31
-0,745	135,67
-0,713	137,56
-0,682	139,12
-0,652	141,14
-0,620	143,28
-0,592	144,94
-0,562	146,95
-0,536	148,89
-0,507	150,39
-0,481	152,26
-0,452	154,18
-0,426	155,94
-0,401	158,08
-0,375	160,26
-0,352	161,94
-0,328	164,13
-0,306	166,18
-0,284	167,83
-0,262	169,76
-0,242	171,77
-0,221	173,30
-0,203	175,29
-0,184	177,21
-0,167	178,76
-0,149	180,42
-0,134	181,79
-0,118	183,52
-0,104	185,17
-0,091	186,44
-0,079	187,97
-0,068	189,53
-0,057	190,75
-0,046	192,02
-0,036	193,24
-0,028	194,03
-0,020	195,15
-0,016	196,25
-0,009	197,16
-0,006	197,87
-0,002	198,58
0,002	199,01
0,003	199,69
0,005	200,07
0,006	200,53
0,006	200,78
0,005	200,84
0,003	200,94
0,000	201,00
-0,003	200,98
-0,008	200,73
-0,014	200,45
-0,022	200,18
-0,030	199,69
-0,038	199,00
-0,046	198,61
-0,057	197,90
-0,068	197,07
-0,079	196,38
-0,091	195,45
-0,104	194,36
-0,119	193,51
-0,135	192,48
-0,151	191,38
-0,168	190,35
-0,185	189,11
-0,204	188,05
-0,223	186,68
-0,242	185,23
-0,264	184,04
-0,286	182,51
-0,308	180,91
-0,331	179,62
-0,355	177,97
-0,379	176,40
-0,404	175,03
-0,429	173,31
-0,456	171,49
-0,482	170,12
-0,511	168,28
-0,539	166,44
-0,569	164,97
-0,597	163,11
-0,627	161,22
-0,657	159,68
-0,686	157,78
-0,716	155,89
-0,748	154,35
-0,779	152,38
-0,811	150,82
-0,842	148,94
-0,875	147,02
-0,906	145,49
-0,939	143,69
-0,972	141,89
-1,005	140,42
-1,037	138,66
-1,070	136,83
-1,103	135,40
-1,136	133,55
-1,169	131,77
-1,200	130,42
-1,232	128,79
-1,263	127,18
-1,294	125,89
-1,326	124,35
-1,357	123,14
-1,387	121,71
-1,418	120,39
-1,448	119,33
-1,477	118,12
-1,505	116,88
-1,533	115,95
-1,560	114,72
-1,587	113,79
-1,613	112,56
-1,638	111,47
-1,663	110,62
-1,687	109,56
-1,711	108,63
-1,734	107,88
-1,756	107,03
-1,778	106,25
-1,799	105,56
-1,817	104,80
-1,836	104,10
-1,854	103,53
-1,871	102,86
-1,887	102,31
-1,902	101,67
-1,916	101,12
-1,931	100,68
-1,943	100,28
-1,954	99,82
-1,963	99,54
-1,973	99,11
-1,982	98,85
-1,990	98,52
-1,996	98,21
-2,003	97,98
-2,006	97,76
-2,009	97,54
-2,012	97,40
-2,014	97,19
-2,014	97,06
-2,015	96,94
-2,014	96,85
-2,012	96,80
-2,009	96,72
-2,004	96,70
-2,000	96,74
-1,993	96,80
-1,985	96,87
-1,978	96,94
-1,968	97,03
-1,959	97,18
-1,948	97,28
-1,935	97,47
-1,923	97,67
-1,909	97,84
-1,894	98,08
-1,879	98,34
-1,863	98,72
-1,844	99,03
-1,827	99,35
-1,806	99,79
-1,786	100,21
-1,766	100,62
-1,744	101,09
-1,723	101,45
-1,700	102,05
-1,676	102,66
-1,651	103,13
-1,626	103,78
-1,599	104,51
-1,572	105,04
-1,546	105,80
-1,519	106,56
-1,491	107,27
-1,462	108,08
-1,433	108,80
-1,403	109,74
-1,373	110,71
-1,343	111,55
-1,312	112,57
-1,282	113,61
-1,249	114,56
-1,217	115,67
-1,186	116,84
-1,155	117,93
-1,122	119,17
-1,090	120,27
-1,059	121,66
-1,026	123,06
-0,993	124,18
-0,960	125,62
-0,927	127,13
-0,895	128,33
-0,862	129,93
-0,831	131,25
-0,801	132,97
-0,770	134,78
-0,738	136,19
-0,707	138,08
-0,675	139,99
-0,646	141,61
-0,614	143,55
-0,586	145,62
-0,558	147,23
-0,529	149,20
-0,503	151,15
-0,474	152,70
-0,448	154,75
-0,421	156,88
-0,396	158,51
-0,371	160,60
-0,347	162,68
-0,324	164,47
-0,302	166,57
-0,280	168,58
-0,258	170,20
-0,237	172,13
-0,217	173,65
-0,198	175,52
-0,179	177,39
-0,162	178,92
-0,146	180,77
-0,130	182,65
-0,116	183,95
-0,102	185,54
-0,088	187,06
-0,077	188,20
-0,064	189,77
-0,053	191,23
-0,044	192,36
-0,035	193,62
-0,027	194,74
-0,020	195,53
-0,014	196,44
-0,009	197,40
-0,005	198,09
-0,002	198,81
0,002	199,30
0,005	199,73
0,005	200,25
0,006	200,53
0,005	200,94
0,003	201,06
0,002	201,15
-0,002	201,10
-0,005	201,05
-0,009	200,79
-0,016	200,45
-0,024	199,92
-0,031	199,55
-0,039	199,01
-0,049	198,40
-0,058	197,76
-0,069	196,98
-0,080	196,05
-0,093	195,41
-0,107	194,42
-0,123	193,61
-0,138	192,49
-0,156	191,28
-0,173	190,25
-0,190	189,02
-0,207	187,61
-0,226	186,45
-0,247	185,04
-0,269	183,52
-0,291	182,29
-0,314	180,64
-0,336	179,01
-0,360	177,76
-0,385	176,07
-0,410	174,46
-0,435	173,05
-0,462	171,30
-0,489	169,52
-0,517	168,04
-0,545	166,22
-0,575	164,32
-0,603	162,86
-0,633	160,99
-0,663	159,35
-0,693	157,47
-0,723	155,66
-0,754	154,11
-0,785	152,19
-0,818	150,21
-0,850	148,71
-0,881	146,75
-0,914	144,86
-0,947	143,43
-0,980	141,55
-1,012	139,77
-1,043	138,26
-1,076	136,42
-1,109	134,65
-1,142	133,26
-1,175	131,59
-1,208	130,22
-1,239	128,61
-1,271	127,05
-1,302	125,78
-1,334	124,23
-1,363	122,73
-1,393	121,56
-1,425	120,15
-1,455	118,83
-1,483	117,82
-1,511	116,65
-1,539	115,62
-1,566	114,52
-1,593	113,34
-1,618	112,45
-1,645	111,39
-1,668	110,32
-1,693	109,47
-1,717	108,51
-1,739	107,55
-1,762	106,84
-1,783	106,01
-1,803	105,23
-1,822	104,66
-1,839	103,97
-1,858	103,45
-1,874	102,80
-1,891	102,18
-1,907	101,72
-1,921	101,14
-1,934	100,59
-1,945	100,21
-1,956	99,74
-1,965	99,40
-1,976	98,97
-1,984	98,65
-1,992	98,33
-1,998	98,12
-2,003	97,84
-2,007	97,69
-2,011	97,55
-2,012	97,38
-2,014	97,27
-2,015	97,12
-2,015	97,05
-2,014	96,95
-2,012	96,84
-2,009	96,84
-2,004	96,84
-1,998	96,87
-1,992	96,87
-1,984	96,92
-1,976	97,02
-1,967	97,04
-1,956	97,14
-1,945	97,25
-1,932	97,41
-1,920	97,54
-1,905	97,75
-1,890	98,01
-1,874	98,34
-1,858	98,62
-1,841	99,03
-1,822	99,47
-1,802	99,74
-1,781	100,20
-1,761	100,68
-1,739	101,08
-1,717	101,63
-1,693	102,05
-1,670	102,58
-1,645	103,23
-1,619	103,74
-1,593	104,48
-1,566	105,17
-1,539	105,79
-1,513	106,61
-1,484	107,44
-1,456	108,17
-1,426	109,00
-1,396	109,78
-1,367	110,73
-1,337	111,76
-1,305	112,67
-1,274	113,79
-1,243	114,97
-1,211	115,97
-1,178	117,13
-1,147	118,38
-1,115	119,37
-1,082	120,58
-1,051	121,69
-1,018	123,05
-0,985	124,53
-0,952	125,77
-0,920	127,40
-0,888	128,95
-0,856	130,22
-0,825	131,87
-0,793	133,46
-0,762	134,92
-0,730	136,66
-0,699	138,15
-0,668	140,15
-0,638	142,20
-0,608	143,87
-0,580	145,90
-0,551	147,91
-0,523	149,50
-0,496	151,38
-0,468	153,28
-0,441	155,00
-0,415	157,05
-0,390	159,27
-0,364	160,95
-0,341	163,12
-0,317	165,25
-0,295	166,82
-0,275	168,84
-0,253	170,72
-0,232	172,19
-0,214	174,05
-0,193	175,61
-0,176	177,51
-0,159	179,52
-0,141	181,08
-0,127	182,94
-0,112	184,54
-0,099	185,78
-0,085	187,32
-0,074	188,84
-0,061	189,96
-0,052	191,33
-0,041	192,60
-0,033	193,66
-0,025	194,70
-0,019	195,76
-0,013	196,48
-0,008	197,35
-0,005	198,33
0,000	198,76
0,002	199,42
0,005	199,82
0,005	200,24
0,006	200,68
0,005	200,89
0,003	201,06
0,002	201,13
-0,002	201,03
-0,006	200,95
-0,011	200,58
-0,017	200,32
-0,025	199,79
-0,033	199,32
-0,041	198,82
-0,052	198,20
-0,061	197,43
-0,072	196,75
-0,085	195,86
-0,096	194,83
-0,110	194,13
-0,124	193,03
-0,141	191,93
-0,159	190,93
-0,176	189,67
-0,195	188,64
-0,214	187,32
-0,232	185,92
-0,253	184,78
-0,273	183,21
-0,297	181,60
-0,319	180,35
-0,342	178,77
-0,366	177,06
-0,391	175,68
-0,416	173,93
-0,441	172,15
-0,468	170,78
-0,496	168,94
-0,525	167,08
-0,553	165,59
-0,581	163,76
-0,611	161,97
-0,641	160,42
-0,671	158,55
-0,701	157,02
-0,730	155,13
-0,762	153,20
-0,793	151,66
-0,826	149,72
-0,858	147,74
-0,891	146,32
-0,922	144,40
-0,957	142,60
-0,988	141,16
-1,019	139,27
-1,052	137,41
-1,085	135,93
-1,118	134,14
-1,151	132,41
-1,184	131,09
-1,216	129,47
-1,247	128,12
-1,279	126,54
-1,310	124,92
-1,341	123,63
-1,371	122,12
-1,403	120,79
-1,433	119,70
-1,462	118,51
-1,491	117,26
-1,519	116,34
-1,546	115,16
-1,574	114,25
-1,599	113,06
-1,626	111,92
-1,651	111,04
-1,674	109,97
-1,698	109,00
-1,722	108,23
-1,745	107,41
-1,767	106,59
-1,788	105,96
-1,808	105,20
-1,827	104,64
-1,844	103,85
-1,861	103,19
-1,879	102,65
-1,894	101,98
-1,910	101,44
-1,923	100,99
-1,935	100,50
-1,948	100,06
-1,959	99,71
-1,968	99,34
-1,978	99,00
-1,985	98,62
-1,993	98,30
-2,000	98,07
-2,004	97,77
-2,009	97,57
-2,011	97,42
-2,012	97,22
-2,014	97,05
-2,015	96,94
-2,015	96,78
-2,014	96,71
-2,011	96,66
-2,007	96,60
-2,003	96,59
-1,996	96,62
-1,990	96,73
-1,982	96,82
-1,973	96,83
-1,963	96,97
-1,954	97,08
-1,942	97,30
-1,929	97,42
-1,916	97,65
-1,902	97,88
-1,887	98,12
-1,871	98,44
-1,854	98,81
-1,836	99,10
-1,817	99,56
-1,797	99,99
-1,777	100,32
-1,756	100,84
-1,734	101,25
-1,712	101,77
-1,689	102,40
-1,663	102,94
-1,638	103,51
-1,613	104,26
-1,587	104,79
-1,560	105,52
-1,532	106,27
-1,505	106,88
-1,477	107,74
-1,448	108,61
-1,418	109,33
-1,389	110,27
-1,359	111,08
-1,329	112,12
-1,297	113,18
-1,266	114,08
-1,235	115,20
-1,202	116,35
-1,170	117,31
-1,139	118,66
-1,106	119,72
-1,074	121,07
-1,043	122,35
-1,010	123,54
-0,977	125,01
-0,944	126,52
-0,913	127,71
-0,880	129,28
-0,848	130,89
-0,817	132,25
-0,785	133,91
-0,754	135,34
-0,723	137,12
-0,691	139,05
-0,661	140,61
-0,630	142,63
-0,600	144,67
-0,572	146,34
-0,543	148,36
-0,517	150,41
-0,489	151,95
-0,462	153,95
-0,435	155,96
-0,408	157,53
-0,383	159,62
-0,360	161,68
-0,336	163,39
-0,313	165,60
-0,291	167,58
-0,270	169,23
-0,248	171,25
-0,228	173,16
-0,209	174,53
-0,188	176,41
-0,171	178,33
-0,154	179,83
-0,138	181,69
-0,123	183,20
-0,108	184,85
-0,096	186,38
-0,083	187,61
-0,071	189,04
-0,060	190,57
-0,049	191,66
-0,039	192,98
-0,031	194,20
-0,024	195,15
-0,017	196,02
-0,011	196,93
-0,006	197,59
-0,003	198,38
0,000	199,14
0,003	199,55
0,005	200,04
0,006	200,49
0,006	200,71
0,005	200,97
0,003	201,11
0,002	201,15
-0,003	201,05
-0,006	200,95
-0,013	200,63
-0,019	200,16
-0,027	199,77
-0,035	199,28
-0,042	198,71
-0,053	198,08
-0,064	197,27
-0,075	196,40
-0,086	195,68
-0,099	194,68
-0,115	193,75
-0,129	192,83
-0,146	191,79
-0,162	190,48
-0,179	189,49
-0,198	188,26
-0,217	187,18
-0,236	185,84
-0,258	184,37
-0,280	183,10
-0,302	181,52
-0,324	179,76
-0,347	178,42
-0,371	176,85
-0,396	175,15
-0,421	173,79
-0,448	172,07
-0,474	170,31
-0,501	168,78
-0,529	167,01
-0,558	165,19
-0,587	163,69
-0,617	161,83
-0,646	159,95
-0,675	158,46
-0,707	156,58
-0,737	155,00
-0,768	153,06
-0,800	151,11
-0,833	149,56
-0,864	147,65
-0,895	145,77
-0,928	144,33
-0,961	142,44
-0,993	140,65
-1,026	139,10
-1,059	137,31
-1,092	135,43
-1,125	134,12
-1,158	132,34
-1,189	130,64
-1,222	129,34
-1,253	127,71
-1,285	126,44
-1,315	124,89
-1,346	123,34
-1,378	122,22
-1,407	120,78
-1,437	119,47
-1,467	118,46
-1,495	117,16
-1,524	116,28
-1,550	115,11
-1,577	113,96
-1,604	113,02
-1,630	111,89
-1,656	110,77
-1,679	109,92
-1,703	108,92
-1,726	107,97
-1,748	107,28
-1,770	106,43
-1,791	105,67
-1,811	105,04
-1,830	104,34
-1,847	103,80
-1,865	103,14
-1,882	102,55
-1,898	101,98
-1,912	101,48
-1,926	100,91
-1,938	100,52
-1,949	100,10
-1,960	99,67
-1,970	99,30
-1,979	98,91
-1,987	98,58
-1,995	98,23
-2,001	97,88
-2,006	97,74
-2,009	97,50
-2,011	97,35
-2,014	97,26
-2,014	97,11
-2,015	97,02
-2,015	96,97
-2,014	96,92
-2,011	96,81
-2,006	96,81
-2,001	96,85
-1,995	96,81
-1,989	96,87
-1,981	96,92
-1,971	97,04
-1,962	97,14
-1,951	97,27
-1,940	97,40
-1,927	97,57
-1,913	97,77
-1,899	98,01
-1,883	98,30
-1,868	98,57
-1,850	98,91
-1,833	99,33
-1,814	99,64
-1,794	100,12
-1,773	100,58
-1,751	101,00
-1,731	101,47
-1,707	101,89
-1,684	102,44
-1,660	103,07
-1,635	103,57
-1,608	104,24
-1,582	105,02
-1,555	105,56
-1,528	106,34
-1,502	107,15
-1,473	107,84
-1,444	108,68
-1,414	109,40
-1,384	110,39
-1,354	111,36
-1,323	112,24
-1,293	113,34
-1,261	114,46
-1,230	115,37
-1,197	116,53
-1,166	117,75
-1,134	118,77
-1,103	120,01
-1,070	121,12
-1,037	122,47
-1,005	123,95
-0,972	125,08
-0,939	126,58
-0,908	128,14
-0,875	129,39
-0,844	131,01
-0,812	132,31
-0,781	134,01
-0,749	135,80
-0,718	137,32
-0,686	139,30
-0,657	141,26
-0,625	142,88
-0,597	144,96
-0,569	146,82
-0,540	148,45
-0,512	150,40
-0,485	152,23
-0,457	153,80
-0,430	155,91
-0,405	158,03
-0,380	159,84
-0,355	162,03
-0,333	164,15
-0,309	165,84
-0,287	167,80
-0,267	169,85
-0,245	171,39
-0,225	173,21
-0,206	174,65
-0,187	176,56
-0,170	178,49
-0,152	179,98
-0,137	181,86
-0,121	183,56
-0,107	184,95
-0,093	186,49
-0,082	188,05
-0,069	189,21
-0,058	190,73
-0,049	192,01
-0,039	193,03
-0,030	194,17
-0,022	195,25
-0,016	196,07
-0,011	196,91
-0,006	197,62
-0,003	198,39
