#FFT von Winkelposition, Daten
#Frequenz ( Hz )	Relative Amplitude (  )
0,0000	0,063
1,9531	0,102
3,9063	0,336
5,8594	1,000
7,8125	0,252
9,7656	0,157
11,7188	0,109
13,6719	0,088
15,6250	0,068
17,5781	0,066
19,5313	0,058
21,4844	0,051
23,4375	0,047
25,3906	0,043
27,3438	0,039
29,2969	0,037
31,2500	0,034
33,2031	0,032
35,1563	0,030
37,1094	0,028
39,0625	0,027
41,0156	0,026
42,9688	0,024
44,9219	0,023
46,8750	0,022
48,8281	0,021
50,7813	0,021
52,7344	0,020
54,6875	0,019
56,6406	0,018
58,5938	0,018
60,5469	0,017
62,5000	0,017
64,4531	0,016
66,4063	0,016
68,3594	0,015
70,3125	0,015
72,2656	0,014
74,2188	0,014
76,1719	0,014
78,1250	0,013
80,0781	0,013
82,0313	0,012
83,9844	0,012
85,9375	0,012
87,8906	0,012
89,8438	0,011
91,7969	0,011
93,7500	0,011
95,7031	0,011
97,6563	0,011
99,6094	0,010
101,5625	0,010
103,5156	0,010
105,4688	0,010
107,4219	0,009
109,3750	0,009
111,3281	0,009
113,2813	0,009
115,2344	0,009
117,1875	0,008
119,1406	0,008
121,0938	0,008
123,0469	0,008
125,0000	0,008
126,9531	0,008
128,9063	0,008
130,8594	0,008
132,8125	0,007
134,7656	0,007
136,7188	0,007
138,6719	0,007
140,6250	0,007
142,5781	0,007
144,5313	0,007
146,4844	0,007
148,4375	0,007
150,3906	0,007
152,3438	0,006
154,2969	0,006
156,2500	0,006
158,2031	0,006
160,1563	0,006
162,1094	0,006
164,0625	0,006
166,0156	0,006
167,9688	0,006
169,9219	0,006
171,8750	0,005
173,8281	0,005
175,7813	0,005
177,7344	0,005
179,6875	0,005
181,6406	0,005
183,5938	0,005
185,5469	0,005
187,5000	0,005
189,4531	0,005
191,4063	0,005
193,3594	0,005
195,3125	0,005
197,2656	0,005
199,2188	0,005
201,1719	0,005
203,1250	0,004
205,0781	0,004
207,0313	0,004
208,9844	0,004
210,9375	0,004
212,8906	0,004
214,8438	0,004
216,7969	0,004
218,7500	0,004
220,7031	0,004
222,6563	0,004
224,6094	0,004
226,5625	0,004
228,5156	0,004
230,4688	0,004
232,4219	0,004
234,3750	0,004
236,3281	0,004
238,2813	0,004
240,2344	0,004
242,1875	0,004
244,1406	0,004
246,0938	0,003
248,0469	0,003
250,0000	0,003
251,9531	0,003
253,9063	0,003
255,8594	0,003
257,8125	0,003
259,7656	0,003
261,7188	0,003
263,6719	0,003
265,6250	0,003
267,5781	0,003
269,5313	0,003
271,4844	0,003
273,4375	0,003
275,3906	0,003
277,3438	0,003
279,2969	0,003
281,2500	0,003
283,2031	0,003
285,1563	0,003
287,1094	0,003
289,0625	0,003
291,0156	0,003
292,9688	0,003
294,9219	0,003
296,8750	0,003
298,8281	0,003
300,7813	0,003
302,7344	0,003
304,6875	0,003
306,6406	0,002
308,5938	0,002
310,5469	0,002
312,5000	0,002
314,4531	0,002
316,4063	0,002
318,3594	0,002
320,3125	0,002
322,2656	0,002
324,2188	0,002
326,1719	0,002
328,1250	0,002
330,0781	0,002
332,0313	0,002
333,9844	0,002
335,9375	0,002
337,8906	0,002
339,8438	0,002
341,7969	0,002
343,7500	0,002
345,7031	0,002
347,6563	0,002
349,6094	0,002
351,5625	0,002
353,5156	0,002
355,4688	0,002
357,4219	0,002
359,3750	0,002
361,3281	0,002
363,2813	0,002
365,2344	0,002
367,1875	0,002
369,1406	0,002
371,0938	0,002
373,0469	0,002
375,0000	0,002
376,9531	0,002
378,9063	0,002
380,8594	0,002
382,8125	0,002
384,7656	0,002
386,7188	0,002
388,6719	0,002
390,6250	0,002
392,5781	0,002
394,5313	0,001
396,4844	0,001
398,4375	0,001
400,3906	0,001
402,3438	0,001
404,2969	0,001
406,2500	0,001
408,2031	0,001
410,1563	0,001
412,1094	0,001
414,0625	0,001
416,0156	0,001
417,9688	0,001
419,9219	0,001
421,8750	0,001
423,8281	0,001
425,7813	0,001
427,7344	0,001
429,6875	0,001
431,6406	0,001
433,5938	0,001
435,5469	0,001
437,5000	0,001
439,4531	0,001
441,4063	0,001
443,3594	0,001
445,3125	0,001
447,2656	0,001
449,2188	0,001
451,1719	0,001
453,1250	0,001
455,0781	0,001
457,0313	0,001
458,9844	0,001
460,9375	9,998E-4
462,8906	0,001
464,8438	0,001
466,7969	0,001
468,7500	9,527E-4
470,7031	9,747E-4
472,6563	0,001
474,6094	9,890E-4
476,5625	9,787E-4
478,5156	9,764E-4
480,4688	9,853E-4
482,4219	9,498E-4
484,3750	9,297E-4
486,3281	9,863E-4
488,2813	9,985E-4
490,2344	8,826E-4
492,1875	9,636E-4
494,1406	0,001
496,0938	9,389E-4
498,0469	9,247E-4
